# Stream: demo_eeg (EEG) from localhost
# Time range (requested): 0s - 10.445s
# Buffer range available: 0.0000s - 19.2277s
timestamp,relative_time,Fp1,Fp2,C3,C4,P3,P4,O1,O2
0.1276999988555909,0.0000,111.66751082989623,94.43459462165404,21.77541102296836,16.730640817090546,12.828619399093192,9.460096019503007,22.98342680240234,23.340383558264826
0.13169999885559092,0.0040,107.65216306648314,96.4182124346589,14.176558033333317,12.98033683644001,7.05450219596748,12.511117486592957,18.04974147255598,18.28265664596256
0.13569999885559092,0.0080,105.42469887309585,88.635859463034,13.036150439402935,10.550674487466795,13.099214726395061,7.031331793020168,19.697900199903604,17.22851864659323
0.13969999885559092,0.0120,106.14078851747342,86.70781988274845,9.285163848819687,9.988098216118074,6.1524795260392375,8.509095713729181,14.670222672665114,13.914858858181294
0.14369999885559093,0.0160,101.18045665189997,83.94029875934076,6.8517914674471,5.570067972670484,1.449170618163099,7.13207263534947,11.263762461390627,7.604625814948427
0.1476999988555909,0.0200,102.10764675057953,79.79854087246896,0.7001383791243745,-1.9009028607831167,3.0348782347468957,0.18048273615535404,5.888194356729191,4.053876300029536
0.1516999988555909,0.0240,-3.936040559590274,-1.4048803271682466,-1.5801530917207498,-2.5057647666098655,-0.4287359414366083,-2.5169993485749034,-0.19737708065363524,-1.0057663673391852
0.1556999988555909,0.0280,-8.049183953046192,-6.651846105434047,-6.507352775620251,-2.226802837203273,-7.172346467240993,-6.251238442860733,-8.783215850425167,-10.105041824674359
0.1596999988555909,0.0320,-11.47459574016791,-8.13769156952498,-10.043980150578069,-7.38652554157485,-7.011752627729132,-6.575024395168377,-13.885605973062464,-14.22696635694547
0.16369999885559092,0.0360,-12.24883758091176,-9.481281977784763,-14.439374102928806,-12.54317621587542,-5.97781431979433,-12.848934673878084,-19.58166653560915,-14.753668604951075
0.16769999885559092,0.0400,-13.258028956582827,-12.872768834402551,-13.638302131089596,-17.840512112121655,-10.284343715638943,-14.363663683161441,-18.88826126601257,-20.02497715577875
0.1716999988555909,0.0440,-16.527132160801713,-17.528799742704525,-19.512309936395383,-15.248772964509502,-7.9417314567202,-13.310298478350727,-21.372828812018465,-20.761572501881485
0.1756999988555909,0.0480,-12.652967666274673,-14.83589766981558,-18.37838396549079,-17.315623982061812,-13.405905808768402,-10.25212700503461,-19.830562134865186,-19.756035766841308
0.1796999988555909,0.0520,-12.746493211922639,-10.703395277334064,-23.598281481682477,-18.574237756223972,-8.376358983843684,-12.295351237123068,-22.6436151809091,-22.014179245915795
0.1836999988555909,0.0560,-14.480877338630128,-14.809062994497623,-23.20101379326529,-19.18506234665451,-7.420379430317647,-12.098656206325881,-17.235632183921094,-19.79932728991257
0.1876999988555909,0.0600,-10.214938650935718,-10.42256099079089,-20.159958180026024,-19.280329316435644,-7.578936980637588,-10.038844676012634,-16.013300725466852,-17.934278194952277
0.19169999885559091,0.0640,-9.60345915819935,-4.447796777594371,-12.93565819967857,-13.565994191913319,-4.900205675675893,-9.568522885264024,-11.35170179500613,-9.45026715703896
0.19569999885559092,0.0680,-6.65495465219488,-0.6047998563107271,-7.486829139624967,-8.507560871672474,-5.549332981844956,-2.1171146485108716,-7.752938774034346,-7.852892965422583
0.19969999885559092,0.0720,-1.0632105464564916,1.0828394076605796,2.760987245673849,-1.5077285799626152,2.579278423847021,-3.978544480902049,1.3415292286487064,0.30968225565212615
0.20369999885559092,0.0760,3.377937327099026,6.8966143919128555,7.856279981674754,6.71974157457737,5.449454362618349,5.871044865868594,5.705035809290404,4.6346439060310445
0.20769999885559093,0.0800,5.431056236166468,3.2659968074020513,10.782018888512052,10.797675783552283,7.98730427600934,7.949808570395853,9.354320419197103,13.043364174970133
0.21169999885559093,0.0840,12.074342434524617,6.6733431913619095,20.016111863140793,16.586274738179693,8.171414683404622,10.040239778130267,16.90951711916712,17.178523766800343
0.2156999988555909,0.0880,15.196882755270906,11.854509840663766,17.293490230229615,18.86551733526296,7.6894941604641405,6.066767663068474,20.4395875758296,20.045947474781677
0.2196999988555909,0.0920,16.959230750903146,13.540931080583182,20.160723706977326,23.833971148030475,11.630402826713773,12.821940172898335,19.616811531172743,18.904483849148185
0.22369999885559091,0.0960,17.76845875289733,13.660027605286746,21.682519453425336,20.0472540243229,15.307875387002436,13.770164471063413,22.962600313610164,20.89324886841727
0.23049999999999926,0.1028,17.972655461724354,14.497557240597143,14.61321225470084,14.865764636539486,9.161742830713713,14.071115654735811,19.412580599656877,21.679806268835097
0.23449999999999926,0.1068,13.220598675246112,8.4646245676835,12.671052887782459,14.817464737880222,7.737584246240075,6.303259696693437,19.40496841134755,20.65569709321378
0.23849999999999927,0.1108,12.922226001352431,9.372401555848874,8.148781121080468,6.453283927565837,5.734872816786041,5.071398712859704,17.1639285866995,16.555317537832877
0.24249999999999927,0.1148,8.676583744663258,6.641984860635276,4.339587710984754,3.030771260784838,4.2954447123309185,7.626454277293238,11.021756259909305,8.96558259851715
0.24649999999999928,0.1188,-0.3365949905690506,-0.4514059367958385,-1.085328031034912,-0.45086326093703866,2.0795113242145744,-0.5853557926143669,2.193039152229328,2.8403666390433147
0.2504999999999993,0.1228,-3.9938917186299694,0.5856035691058652,-4.058177393273903,1.610256051174236,-1.420927400369925,-0.6254336744322965,-0.5528459631249718,-3.4324331854232972
0.2544999999999993,0.1268,-4.9562300600086,-4.690821777142192,-5.237976657486648,-4.28828218817418,-0.8129420981968689,-0.6968763759363279,-8.790421935311306,-6.019197996289447
0.2584999999999993,0.1308,-9.850319905501824,-3.9678392565459557,-3.5100494441900834,-8.235446032162432,-8.683298557101974,-7.713553112077357,-10.100709425595024,-12.91016169164419
0.2624999999999993,0.1348,-9.055084579776763,-10.037519921276452,-11.702579257416225,-12.15156947335506,-9.947158139110527,-4.725675695082128,-15.667662456876124,-17.225387502007447
0.26649999999999924,0.1388,-14.28914333202457,-10.88575565639012,-15.64773763807544,-11.87994955213339,-11.837607352113631,-6.822420712224155,-19.844405324443617,-17.118981970483446
0.27049999999999924,0.1428,-13.728768056665295,-17.541943609337373,-16.254326668922037,-14.45440404325231,-8.239227963232146,-7.531392398747148,-19.590875654888727,-21.687432275428783
0.27449999999999924,0.1468,-12.814655686928496,-16.51422754252877,-22.729145538592405,-17.956250670961584,-15.957898055477056,-11.174577729655905,-23.0374396684345,-19.863072529972058
0.27849999999999925,0.1508,-16.011656907595846,-14.273891725248255,-24.391755154555256,-21.713215858790534,-12.49263177967266,-9.04837983624216,-23.092816661920686,-21.914265409601846
0.28249999999999925,0.1548,-15.596710874107917,-10.639676270803477,-21.91387386096548,-18.951728151518136,-12.348865749026704,-7.551666030044296,-20.343887276807227,-18.449435797822225
0.28649999999999926,0.1588,-8.22704865164102,-8.797028363508758,-16.882534012777274,-21.81649870511017,-8.10182426207674,-6.538350103419304,-16.613813089289444,-18.79070431576768
0.29049999999999926,0.1628,-5.972362324031587,-12.17849728548187,-11.298136819697683,-12.582594355131652,-5.2279003711844325,-10.355610729294922,-14.356090968197877,-14.319226358498408
0.29449999999999926,0.1668,-2.8742790280077974,-8.463474962669508,-9.391910382247238,-10.463475673533539,-1.4370307742805126,-5.03070924859805,-9.910994489931394,-9.106361013103774
0.29849999999999927,0.1708,-1.3071297360963603,-0.8717230910150737,1.392837003651322,-2.119965628151192,-2.8927097095655734,2.11850578441555,-3.2903906352949717,-2.2884569934358026
0.30249999999999927,0.1748,1.7336278538015142,-1.6198811961542203,3.5903215704325104,3.2348760566084476,5.798413967702289,-1.7280260201955129,3.195159626370452,4.841449747552175
0.3064999999999993,0.1788,3.6736342262684305,3.6091245944724326,10.216645027373724,14.073756746080534,6.4884716453354505,7.998322357335774,10.662403518187313,11.380672969720095
0.3104999999999993,0.1828,9.26366601957525,10.811624651597906,16.94383477536075,17.091116351665274,8.024828036026474,3.4794039925997104,15.859804176872451,15.775838511160384
0.3144999999999993,0.1868,10.529109558080773,13.393619804549871,15.33079287105389,21.211393334916675,8.535646905094342,11.751475154874775,20.04527029851462,18.179247188421126
0.31849999999999923,0.1908,11.137415731223337,13.476188164623952,20.93882651151233,20.133116082287156,11.287267147990619,10.925504933077615,19.227412628014466,18.994996447226928
0.32249999999999923,0.1948,12.765083770605694,17.056323867000657,20.20715111169203,18.63999720986486,12.605956183720245,12.561099325454222,21.811743860047354,20.97282966095821
0.32649999999999924,0.1988,14.794064888181637,11.237299733626108,16.522997428048217,16.041267915501773,13.011974187530015,8.617896613738498,20.742755911236355,20.099351013880117
0.33129999923706066,0.2036,16.26372859408744,13.079949169152545,18.899361461970198,14.706870628808456,14.439072641935343,13.109284950788421,20.23695853039159,20.464672318367345
0.33529999923706066,0.2076,14.200626136276032,15.172889156301562,10.230532568610096,14.314853482097785,10.345351015086143,13.12881902967175,16.79092564329117,20.343640576562354
0.33929999923706067,0.2116,11.83684224823697,12.61651551185614,9.52809973687074,9.944562543360313,9.96679017897059,8.299506382828868,14.585794600178064,11.437454178398609
0.34329999923706067,0.2156,3.6966463300952173,9.386192178380348,4.668647671657359,7.013799192879086,1.8639677959587804,2.2706092284038375,6.663736940753183,8.289780189694493
0.3472999992370607,0.2196,5.975293451162214,0.5596827071820845,-0.7442630760055258,0.9484000474698,1.6271675005630164,4.055475831459194,6.564066674345213,4.438666372221008
0.3512999992370607,0.2236,0.472899665816809,-2.9611865403919744,-3.6051635957031625,-1.5839904951647896,-3.7557715367442714,-2.462283634823902,-3.69180998206381,-4.486714528809609
0.3552999992370607,0.2276,-4.418746203411048,-8.481861242264419,-5.747778130742858,-1.069143748564092,-6.779882228582704,-4.75074799241072,-8.472618516153013,-8.199160854669806
0.3592999992370607,0.2316,-12.028396746979933,-11.287950482733324,-6.58256408243357,-5.477834481663812,-2.74912152446708,-6.057521347448589,-12.43534952607429,-10.377789215319787
0.3632999992370607,0.2356,-14.63750190537591,-11.376387311187266,-8.125080424667061,-10.949375638696418,-9.09638591638901,-8.026418702578368,-15.392951211547315,-18.62905656127337
0.36729999923706064,0.2396,-14.010065351265013,-10.074603682144492,-14.363473546973339,-12.77424815437661,-8.054239565747395,-10.144249356254406,-17.763711775469986,-20.91787357435876
0.37129999923706064,0.2436,-10.932741440998715,-11.368176494147487,-15.259209620557701,-14.43171629383191,-11.183126512722394,-15.173691101081776,-19.661034680142716,-20.126106874347723
0.37529999923706064,0.2476,-18.911328353238574,-11.058904157891044,-22.224695513301032,-19.222560997742423,-12.765725193358527,-12.55949735643318,-24.460120481697,-20.919632866845486
0.37929999923706065,0.2516,-15.110499588801336,-17.049297268755133,-21.027003676145668,-22.731851115402975,-12.97603229974077,-8.441856949828429,-23.28457028298227,-24.37957470668282
0.38329999923706065,0.2556,-9.450611883933659,-13.935828374233516,-22.50127228742337,-18.006895099001106,-6.824308129250047,-8.936716054943444,-18.341209381193316,-18.492040672338184
0.38729999923706065,0.2596,-11.667614197322962,-8.885859001757346,-15.112503141484837,-18.697794402885577,-9.053429468403138,-5.6145057275202905,-15.562603201879025,-14.275345973461475
0.39129999923706066,0.2636,-10.726375837582015,-8.788293145121354,-13.50871775530235,-11.060829331220592,-4.335212456471028,-9.410747594524134,-12.280948722930136,-13.842023094127285
0.39529999923706066,0.2676,-4.776821811668276,-6.972159036757439,-5.244707741894012,-7.909827387643184,-4.205297266996121,-5.396315946643373,-8.69216571874318,-6.96058048994448
0.39929999923706067,0.2716,0.2425678825458809,1.9546885996396854,0.9516054847681483,2.058818052718908,-2.9827857386149916,-1.9833303744192459,-2.5935844792887766,0.8865497096351567
0.40329999923706067,0.2756,0.21120135837503362,1.9898060137453788,7.809427502722185,3.7183029617042003,2.0337122119439672,4.913479518215562,1.9444809321929917,7.169495383618379
0.4072999992370607,0.2796,3.4217143885474064,6.268952194595687,15.393589416058841,14.115072357614974,9.106486846575427,4.3124413966981585,9.492528554710507,12.544716549952927
0.4112999992370607,0.2836,8.98407686490972,9.96735942594178,15.173295904667997,16.44012481789209,7.717319694927137,7.970687452353743,13.551656040085783,16.801323900580694
0.4152999992370607,0.2876,8.757427951531708,13.57614815358491,21.576044800768415,16.75345133588018,8.333440123728135,7.266960410480459,17.607694285105406,18.610753850402524
0.4192999992370606,0.2916,12.300974968997362,13.676284372799888,23.207010303109058,21.93087505699471,14.080465300453799,14.625619354942113,20.67157750503927,20.590221784062532
0.42329999923706063,0.2956,14.603868398005343,16.61633911088324,18.821366778759725,23.14927024720246,12.59758893174192,14.208089966770993,20.020995136540904,21.803896146198984
0.42729999923706063,0.2996,12.137790347750716,14.39507866889555,16.58188991700222,17.904122877018278,10.719333402071577,12.710635760486863,24.00164942359216,21.73807161610862
0.4296999988555905,0.3020,16.476998059779095,14.836364813904352,20.21998820619053,14.41508164882702,7.757308529489017,11.209393708514007,23.834510145176342,20.739151478285446
0.4336999988555905,0.3060,15.717107456325266,16.79821201309513,10.98024148453986,13.44887917520165,6.892447159810683,13.470404613960522,17.990564486937892,20.188935963724813
0.4376999988555905,0.3100,7.25929902131997,11.405033198020622,8.693412547946576,9.753576441318845,6.869981394469021,6.891454784322635,18.155568519098352,14.063775963798546
0.4416999988555905,0.3140,9.197404367596643,6.056786962840989,2.7581351685595816,5.890406911362711,3.908452025545098,5.662323103772223,10.288586510159767,13.208930936430194
0.44569999885559053,0.3180,1.2998327527133249,2.159501074135685,7.051962393176365,0.32333665414829005,4.289320274892576,4.828938292966629,4.672227981440898,5.348538208248458
0.44969999885559053,0.3220,0.4396378186394273,-1.6274169504230414,-3.09858644613514,0.17370764110685172,4.072802133652823,3.068434123651301,1.6407252736507552,-1.1910817947994223
0.45369999885559054,0.3260,-2.1648992353135434,-0.5244958704756946,-5.850406315632128,-5.692652504868327,1.0303187711878827,-1.1443341197547126,-6.388130388006536,-2.7745442570495307
0.45769999885559054,0.3300,-7.870546374813305,-4.233290851921627,-4.647699738290807,-7.953751299457221,-2.48781246169297,-8.014888730503086,-8.201436782384835,-10.365697984112941
0.46169999885559054,0.3340,-9.241465327954398,-13.918121228315524,-12.70079207342813,-7.157968275009967,-7.848504547668436,-9.734423922546664,-16.977108106642692,-13.575282891125816
0.4656999988555905,0.3380,-10.176358093643568,-11.646893758327876,-9.460300589249549,-10.250741934916508,-9.91721714699118,-7.412101697493669,-18.47613978833697,-18.4362487478656
0.4696999988555905,0.3420,-10.201310083865748,-17.116525637525836,-17.631333564705276,-14.613883515410304,-14.979374208460115,-8.820585117097012,-21.40379363630752,-21.21312820447159
0.4736999988555905,0.3460,-11.245763399280573,-18.390779023443333,-15.0294857550684,-15.821422970825303,-8.750476894459029,-10.567798974371994,-23.879237953560164,-20.457862921931877
0.4776999988555905,0.3500,-14.396000014075454,-12.903832777224427,-23.44810566338594,-21.51756745211641,-9.023356696948856,-12.976749943933868,-20.94653749409148,-24.65369910810903
0.4816999988555905,0.3540,-9.844596505261343,-11.920798168991112,-24.761516432489653,-22.406209457510915,-12.513951337604206,-13.83077346645893,-19.918440031541074,-21.692205455436167
0.4856999988555905,0.3580,-11.324215012788951,-12.048389515333458,-15.429707274691815,-18.764133650963107,-12.316758866426163,-11.66120804422518,-16.962497466167488,-16.169554785252277
0.4896999988555905,0.3620,-5.234108813858033,-7.96941542804568,-16.557775339027394,-13.030262752832963,-5.554283793457813,-3.3835814431051228,-11.542132639560341,-14.507260405487104
0.4936999988555905,0.3660,-7.586416951000488,-8.4694995053806,-14.354108418674816,-7.450148907972174,-3.6262919686300883,-0.8358795778293366,-9.191925211193318,-8.803123270575398
0.4976999988555905,0.3700,-0.15942121584529811,-3.234084209517622,-5.867320922325435,-3.5059688840295395,0.9904603345805212,-4.61024057962964,-5.000026834380295,-3.814968622091265
0.5016999988555905,0.3740,-0.7631480584534693,0.8237152470212821,1.3692622311878404,4.544491730867755,-1.0626263735693933,-1.1565180494034781,3.173168471518824,3.092689010469691
0.5056999988555905,0.3780,6.953459776687084,8.10622483243925,6.8630793715865055,6.365349465062682,5.707811468898452,5.979839484460423,8.617037842906337,7.282335042594835
0.5096999988555905,0.3820,11.111626259214948,8.927334073595688,14.521126587063057,14.54256194646316,5.110633172366526,9.507088100120704,12.981478431581214,13.029009393735759
0.5136999988555905,0.3860,12.202929219365721,9.028847487930044,16.448031443084467,22.15718117170598,12.490041954229772,7.105727058905095,15.656143635724643,15.908904279029574
0.5176999988555905,0.3900,11.979688405328698,17.17259988490588,20.395707913132185,23.64116386856663,12.236134780635682,12.287083863797054,20.759655427764304,19.11058936188205
0.5216999988555905,0.3940,13.623926028267604,17.026568329346738,18.651584828978564,21.11415998982191,9.33154747971398,12.000029566619787,24.310570859515725,20.125797224814466
0.5256999988555905,0.3980,18.33455053560358,18.85865937967882,21.51625544814902,22.722916920299866,10.941743459185593,8.87304055655433,23.74754788697012,21.526923699332706
0.5283999996185296,0.4007,12.388166682877376,14.328597457134023,17.798148504875243,14.568369950813503,10.689383467117374,11.957394382211758,19.220060157239374,22.396545335116677
0.5323999996185296,0.4047,15.746588385061793,10.001704928188651,16.60164991746387,12.407406735168404,10.668025438514112,11.255920139139633,22.162272789106375,21.33801689175169
0.5363999996185296,0.4087,12.054634194167367,12.852427367522624,10.373271348941904,10.327396358724183,7.918811440191259,8.535425282242898,17.176642968638667,19.53489152844873
0.5403999996185296,0.4127,10.154658640594086,4.800475937791653,6.274559332726073,10.017137582699952,4.366388392318921,3.6795347521321284,11.957898552944359,15.2173110753753
0.5443999996185296,0.4167,6.369764497331312,4.479356328649822,1.0146294289032687,7.588279825035556,4.1128113480554935,6.864141185724702,9.124491456868942,5.330545832314376
0.5483999996185296,0.4207,2.054140548881028,-0.6891546557866477,3.801914840543672,-2.1455515824550413,2.1468904977087075,4.882533780967485,2.1797335523510943,3.4288532557452625
0.5523999996185296,0.4247,-1.2683557128139413,-6.024821287196584,1.2922474928084955,-3.3424753105433966,-0.5404675920962165,-0.4673687820511563,-2.429785379248808,-1.28096556409111
0.5563999996185296,0.4287,-3.0526639084356724,-7.949172702385733,-5.797010150322925,-1.6318675648665701,-5.153543095827834,-1.9548143512770517,-6.40967859837308,-9.548823527613772
0.5603999996185296,0.4327,-9.606499677154606,-8.724688907958566,-7.294504391192193,-10.590232708565066,-7.4493379814013165,-11.091323344275857,-14.45399918282737,-16.089267403988828
0.5643999996185296,0.4367,-15.021270419766177,-14.182779223693469,-12.016488369038,-8.587270843409783,-5.440550733282973,-13.193662789440946,-15.273682609790875,-16.431214867594477
0.5683999996185296,0.4407,-12.672871031548494,-17.300990594446134,-18.46752753476936,-13.109047739079648,-8.567277782294877,-12.753997031689991,-19.82679963384282,-20.910166454657674
0.5723999996185296,0.4447,-14.673482033300594,-17.879611742140728,-17.8498719544475,-20.04900557148612,-8.325547935580179,-7.886241965821298,-22.510919719458233,-23.56003325185177
0.5763999996185296,0.4487,-16.254780423146357,-13.188566178765544,-22.67823664957141,-20.445994249183276,-13.97676250152908,-14.454176405626725,-21.228499520511985,-19.64237847224365
0.5803999996185296,0.4527,-11.66708848510747,-10.992161907062954,-21.71771611359607,-19.984211321175597,-7.624133037712179,-14.10411432914683,-23.080354930656977,-23.461807105934398
0.5843999996185296,0.4567,-9.246526668789262,-9.508848216332852,-23.230139866875113,-20.685291018242136,-10.566491353419753,-8.56811502940375,-20.397685497917603,-21.431182403975995
0.5883999996185296,0.4607,-7.7652883595505156,-11.646257502993867,-19.475952804110904,-15.553691970990615,-10.061158387310378,-11.775778250858416,-17.454749580598445,-14.786561968691245
0.5923999996185296,0.4647,-10.20681972973102,-6.861674199332612,-15.415948335655905,-10.53713211985714,-9.465666263236216,-5.828173227975533,-9.154940737612952,-12.526196485863942
0.5963999996185296,0.4687,-4.543531450749484,-1.7567124504254905,-2.2672472832523933,-7.081712903324603,-1.57220470200153,0.2789589493060287,-4.735813136470639,-3.0589283575809727
0.6003999996185295,0.4727,-1.7111375928311565,-0.7720178767346386,4.349138481822132,3.097913651494636,-3.2358262505517095,-2.552604250839229,3.263834032739288,2.6655528560948425
0.6043999996185295,0.4767,4.800384773144158,6.717967379917787,5.176756438339537,6.676192688513086,4.335911256846586,7.144043653097695,7.4572973729625,5.747897863844924
0.6083999996185295,0.4807,7.997160165775149,7.289689826366956,12.549206132076721,16.261715765347997,4.068403377286498,4.374691267189375,8.988907263203647,12.045820811623589
0.6123999996185295,0.4847,8.318331325636432,9.181671269466172,20.8934315274192,18.054763516218486,5.0334848002875585,7.904442995371112,15.501555496890195,14.070548006167009
0.6163999996185295,0.4887,14.503071238463281,13.967019728534414,24.031035075703898,20.391789932974866,13.166200935158312,10.197121229167248,20.110281327388236,20.14203113902393
0.6203999996185295,0.4927,11.295439097246469,12.559194914287637,20.097022587739932,17.80411377163071,11.97433038161596,14.580374958323535,19.365073175718212,20.097144816208303
0.6243999996185295,0.4967,12.50987696907881,13.827125824206512,23.64761425004156,20.94560023754059,14.407240736592808,8.042078380469176,24.29416124841725,22.257546883528097
0.6289999999999996,0.5013,14.140326928757196,13.851003189297796,17.760515487056864,17.034033555389264,14.312359781043646,14.325666986340256,20.798722978564058,22.922939818839488
0.6329999999999996,0.5053,14.03644133991251,11.749532599288585,17.69951862293179,10.674279561782914,10.594241626353284,7.293125025535566,22.417451331578665,22.045293526744267
0.6369999999999996,0.5093,13.574671812600428,12.22594174398745,12.683208605503157,7.05883366609645,6.769494818056357,11.725642428456528,14.521336816630653,14.771569759924748
0.6409999999999996,0.5133,7.899772163971148,6.8056853924125,7.850004132736852,9.841188024668988,3.783927724779157,10.31203551931894,11.819038260606627,14.620174758127483
0.6449999999999996,0.5173,1.1767901432169179,7.494839378248551,7.250770352484567,3.5018999652204075,6.509822366500046,5.857914508638505,5.569273070307518,4.5616191616645665
0.6489999999999996,0.5213,4.625183073008687,-1.1515150860273777,3.0961919236173294,-2.022023973453413,-1.426626590860573,1.6007866908981012,0.8716133293529205,2.4793000295864998
0.6529999999999996,0.5253,-6.402265752381244,1.0440521589166893,1.4789941258988595,-0.6909117472456288,-5.320674932643166,-0.7297031356672301,-6.203041939780095,-1.5247778598942943
0.6569999999999996,0.5293,-8.006900402608604,-9.682753227573993,-8.16348552496408,-7.030766431587114,-5.589577702609498,-3.348148802637615,-9.848356410709052,-7.425457346227531
0.6609999999999996,0.5333,-12.77394636236886,-11.730157184552827,-6.414541752952752,-8.974789801982224,-7.914186463687233,-9.355467595766578,-12.463608767219919,-13.064641316643323
0.6649999999999996,0.5373,-14.832376431035406,-11.722183507227282,-13.974618476992124,-12.461927709686288,-6.944737244775927,-10.497438423551568,-18.753294487595692,-17.380453671983133
0.6689999999999996,0.5413,-11.775295855642767,-16.961130902259285,-16.57933943222145,-18.5995135809996,-13.941958323466235,-11.186569624596386,-20.730718965685043,-19.805945062748275
0.6729999999999996,0.5453,-17.35497086425821,-16.34645404744968,-21.727003166204675,-20.39681014263964,-10.536274596942102,-9.829401041934876,-23.60286079709566,-22.347036983558592
0.6769999999999996,0.5493,-12.441523996428542,-12.956762707380124,-20.776461146123165,-22.01946960956958,-12.8228146579079,-12.792106610009268,-20.876401969149764,-23.136190174107547
0.6809999999999996,0.5533,-17.60274442192802,-13.868090882631272,-23.875743061766297,-24.44781877393458,-8.443503017279443,-14.341397313071248,-21.83131325714394,-21.281436891562663
0.6849999999999996,0.5573,-11.901795683829892,-12.477075458229372,-21.951291049442233,-16.66116707856304,-13.000447488935823,-5.93700870153478,-18.07866204625739,-16.876965994043896
0.6889999999999996,0.5613,-6.51545247853951,-6.135964604327058,-15.01577473347377,-16.539072603965614,-8.855616581106382,-10.386241416793968,-12.06984648877216,-15.691663252341227
0.6929999999999996,0.5653,-4.484256754913229,-4.191890300524867,-12.577920626695438,-13.477038557131138,-2.0095268952539067,-3.2301072706511063,-11.460515805050836,-9.392245942917244
0.6969999999999996,0.5693,-5.29515563132631,-2.759912839950636,-7.621221986591723,-4.71219714480525,-3.548216735485565,-1.864434710828215,-2.115550322113444,-5.748797332457157
0.7009999999999995,0.5733,-2.7119384296878573,-1.6831083057629512,-2.021662882167976,0.8155675340155398,-3.051269684592511,3.402667144057795,1.7727858853586025,0.4742832668487167
0.7049999999999995,0.5773,2.9065336114780154,7.915001504968436,11.271753930817038,8.47410302382549,1.378058667210789,2.359151404210227,8.102640363521003,6.281862149782385
0.7089999999999995,0.5813,9.856863377668644,8.999147641845266,14.126269158582842,13.187168625363576,3.001122853756444,2.5077278456755874,14.462745630750542,10.573509241045588
0.7129999999999995,0.5853,10.845203856544092,12.39538108946364,18.69387548702853,21.004361009121304,7.171628780972855,11.778289753708442,15.577940228014416,16.91268249765609
0.7169999999999995,0.5893,10.079824262437782,17.121461708298224,19.303336265413456,22.86461456009922,7.515476786732801,11.331479144397093,18.205559001951823,21.78548656940925
0.7209999999999995,0.5933,11.305344552853924,17.824262693036808,22.280599753843223,17.533899301872907,8.114027845555826,11.044546481872421,22.241358055459553,22.27884342205274
0.7249999999999995,0.5973,15.50189267836982,16.054878865757765,21.115628775323717,18.91822035127239,8.459658263788139,9.755459194881052,22.700610497777895,25.004928243785685
0.7280999984741205,0.6004,17.492465440044214,12.174275408991797,21.04723167188411,20.580520817653085,11.317486762817921,11.644146859115835,20.219332741177045,24.136110404543935
0.7320999984741206,0.6044,12.703157990984732,15.257001866774235,11.22068612541947,14.948000456679036,10.537049644196752,12.765526125705769,18.35925575296116,22.86258011744955
0.7360999984741206,0.6084,12.68650021804323,9.775442510253193,10.662587993230604,9.413984341717143,9.823441964241916,11.478925677224426,17.198462681486753,17.801531408195277
0.7400999984741206,0.6124,5.230207082967269,7.348960969377868,8.530556385979086,7.269443457933973,8.60778174296782,8.222274775420473,13.345204571900203,15.20077860497458
0.7440999984741206,0.6164,4.839033814089777,1.5105389593664986,0.9826679256138551,6.186811176601724,6.603508982833892,4.9003966559544,9.278805027369204,5.479311115365832
0.7480999984741206,0.6204,0.04592377455232377,3.5311771473439633,-1.3586360840706768,-0.923496743672934,4.152648214080128,1.7418581618691762,4.30450986587376,2.0260966009702646
0.7520999984741206,0.6244,0.2371958116381987,-3.8349961219784956,-3.8438778561917815,1.3706501408179093,-0.8338029419379585,0.9680393520487918,-3.4849247120923526,-4.645117959878023
0.7560999984741206,0.6284,-1.726944525242395,-7.638321265651876,-8.300992332778458,-2.8017193665337397,-0.7237509387394212,-1.1621647148614507,-7.141791753096031,-7.393449373433704
0.7600999984741206,0.6324,-8.078362798790158,-6.56398675233739,-9.084598336140548,-5.223842021188057,-4.096686612892333,-4.291134923173231,-15.78033943292695,-15.705261687008544
0.7640999984741206,0.6364,-13.708259974672053,-15.271698136302465,-13.144357859970473,-7.669482430247572,-8.7979036397656,-9.648919969002957,-18.133585836764397,-14.702039905803456
0.7680999984741206,0.6404,-14.585150388280654,-11.826753386565475,-12.08285572735679,-13.530675059281416,-8.051024371294751,-12.70996819874961,-22.45828767795243,-22.427926183420446
0.7720999984741206,0.6444,-17.312517381635143,-11.734510177209327,-16.892457986495586,-19.960914358255735,-14.19534513123409,-13.220331081598152,-24.08484917660475,-21.01997296498554
0.7760999984741206,0.6484,-13.28097106792346,-14.26841134260512,-20.436891902835292,-18.253344270728554,-14.975117413305801,-12.44163259265504,-24.905379390893724,-22.468300775937873
0.7800999984741206,0.6524,-12.631311682905253,-16.21097199510094,-20.18609830811367,-23.171213554803376,-10.343530767903022,-11.242767133584117,-21.796682528689974,-19.8660641045658
0.7840999984741206,0.6564,-12.347534412201693,-14.310733198389363,-20.71588974922062,-17.14239123356822,-10.169751690302874,-9.090149565277942,-19.73532773214214,-19.571891577639082
0.7880999984741206,0.6604,-8.68449942602763,-12.802210211580325,-20.352482151663775,-20.50451453997449,-6.933848358991596,-9.833684129695072,-16.972091817697823,-14.38370923482445
0.7920999984741206,0.6644,-4.3181345496083825,-7.139515741050558,-14.054235944130795,-12.077516212230467,-6.3765604897552794,-4.601275745782069,-11.362356062618344,-11.284375198158198
0.7960999984741206,0.6684,-1.4021178206342868,-7.290221132577905,-9.966248199026511,-6.468592937876978,-4.038590064782044,-5.670904160048606,-7.740073443259649,-2.694664267674802
0.8000999984741205,0.6724,0.13209431980315767,-2.7452008675081343,2.3497583048935327,1.6262027670224615,-2.1370976614158703,-0.14111673348796394,0.9249177775285422,0.5244363442553307
0.8040999984741205,0.6764,0.6390385475852289,1.262551908665043,10.880601240928883,9.631960480053149,1.884634231299041,1.93352920993155,6.879853555028457,5.592496083915504
0.8080999984741205,0.6804,8.24952861829565,6.371622286006928,9.26595695442872,15.232164597370247,7.43706464537571,3.5194248910066284,10.150121417282673,9.393156468925902
0.8120999984741205,0.6844,11.990037466040004,13.634756386850306,19.687405229182023,20.854279121890286,7.896219759739385,10.735699620181924,14.636130692874383,17.50087810714523
0.8160999984741205,0.6884,12.808850438330133,10.706401192895953,23.062723503241788,22.6841809984364,12.529070083648097,9.868423702619012,21.223415065987766,18.61268843355244
0.8200999984741205,0.6924,13.848227673030198,18.144949529857115,22.3380818993679,22.768322950736653,10.588692004577048,8.536049135372084,20.07288328243004,22.53088943434884
0.8240999984741205,0.6964,17.47381918703012,14.414592930214564,21.33697224154463,19.57733578909279,13.830882712866698,14.239781231633788,25.099183094395617,20.36168597930376
0.8280999984741211,0.7004,15.895669774299947,15.648872302442644,21.495437958196327,17.20966950020026,10.03766518196963,10.55575984192835,20.044780384996592,21.90744157546791
0.8320999984741211,0.7044,16.93822245269786,14.75697647925221,12.857451710484126,16.880921455164952,10.178658324130428,11.756968807681748,19.09138156177118,18.368343355444907
0.8360999984741211,0.7084,9.292318749686736,8.078812435604956,12.916055211889777,14.314640627073413,6.130868851092667,7.585843408266678,18.160140910203307,19.321109827489217
0.8400999984741211,0.7124,5.39804349802632,10.500466024537008,9.393518382279971,9.59018341097467,4.363083707589893,10.554209134023242,13.818037515170003,10.565337425307371
0.8440999984741211,0.7164,2.2421480239190545,5.748626148980717,0.8881769514357174,4.18814440040381,3.168398362481658,1.9964959988030957,9.174890791819191,5.977759207199181
0.8480999984741211,0.7204,2.71233479904989,-0.6755358413563743,0.42262331748947446,2.9071919355574547,1.5275545183674202,2.7091053498685955,1.9936468500093365,2.092153749213834
0.8520999984741211,0.7244,-1.7439015521711456,-0.1368605510393428,-4.9861724128742075,-4.442580381459464,-1.4073372284954253,-1.483976425337791,-2.9225251694861747,-3.034328980327313
0.8560999984741211,0.7284,-6.104937760544811,-4.006913100401109,-3.2671617653872103,-6.452685316108461,-1.0952690737181419,-7.556589055767157,-8.899276112869126,-5.615537691519449
0.8600999984741211,0.7324,-8.60691618698586,-5.56321413856463,-4.425211913081245,-6.964790811235839,-10.103979529909157,-7.490084924464274,-12.759253835699393,-10.670325904140912
0.8640999984741211,0.7364,-7.866236872509545,-15.17069535901899,-12.800553084205127,-14.47116342963403,-10.261525440784592,-9.477962289077134,-15.250172114337394,-15.543292154159811
0.8680999984741211,0.7404,-15.422998821047107,-10.726286536250125,-10.898977322142851,-14.26467838651532,-14.200285297805664,-8.84082517465895,-21.143880534187065,-18.75835533527126
0.8720999984741211,0.7444,-15.126948011497788,-14.206878121795672,-17.19066617451017,-20.44173917618305,-8.679799568343356,-13.315084681506807,-21.816386117788884,-23.59465554013256
0.8760999984741211,0.7484,-13.320689934844589,-12.537735763629184,-20.702814053707804,-20.888628759682398,-11.283414008669713,-14.494460054898134,-21.61800614928556,-19.813378350499217
0.8800999984741211,0.7524,-17.282781440974965,-15.351455509637868,-21.044383635201584,-18.223084563296375,-9.772675754075797,-14.259391106806174,-19.563635199836778,-23.922504252219934
0.8840999984741211,0.7564,-9.147479685100246,-11.688733296217478,-16.568869779603908,-19.232188276656515,-13.766800977302324,-10.031861453659179,-20.295700968149855,-21.29300958149198
0.8880999984741211,0.7604,-8.40080596222402,-11.288146484738217,-20.105250556814966,-17.688149392774346,-6.492191636912181,-11.293046739645387,-15.426388356443951,-18.008125496468242
0.8920999984741211,0.7644,-3.458532592913051,-10.453829949852254,-13.137168597562429,-10.223013601452381,-4.5715221578505245,-8.840973776503752,-10.662871253495293,-8.534053921950843
0.8960999984741211,0.7684,-1.0691770844496928,-0.6527357926985524,-10.21519393368639,-4.20391568386583,-4.105658358048656,-5.178134126224502,-2.6806013010187058,-8.177287451890383
0.900099998474121,0.7724,2.516679955449894,-0.019269365169419683,-1.073970596017416,-2.139705792923576,3.5159472943646723,-1.5996166382420427,-0.45499566819373455,0.18690560080978535
0.904099998474121,0.7764,2.7150199708442675,7.791482664609035,9.690727931662073,5.1514650614371895,3.766065889697103,0.2736671876555583,7.268065717742809,4.571913225739921
0.908099998474121,0.7804,6.286887610955542,9.050416498196261,12.434373628468386,14.277833770078603,3.016149407461751,2.3207085070505657,10.586407725837857,9.373194817415204
0.912099998474121,0.7844,12.793115152966216,8.510387656205104,20.410991629008663,19.40472692686282,12.239239013350893,6.965965585087645,14.848812460318511,18.136241033648634
0.916099998474121,0.7884,13.444173386490048,14.949616595714112,23.550423431473945,18.467760089880066,8.089771318876444,8.587028896470365,21.192875378735597,19.971687944397598
0.920099998474121,0.7924,12.566757007951564,14.071705735015609,24.238094547215564,17.93639338060384,8.410764129491358,11.423545777357901,23.08759062753404,19.514812074623077
0.924099998474121,0.7964,18.943379718325076,18.86462280175921,16.718258633365437,18.959176158534913,10.387478608630229,8.002462426839987,23.636154654643313,19.707123166275974
0.9284999999999997,0.8008,18.43901175119647,13.038353329207906,14.036507747497897,19.21526032991581,8.956602429656098,11.960899829473487,23.420039577932563,24.574811948816947
0.9324999999999997,0.8048,14.141533676727217,11.450377083503108,15.189854930581514,11.477829988038565,13.339310631922764,13.181755941133893,21.04767690316039,17.303140224662055
0.9364999999999997,0.8088,8.433958842179655,10.153185482308249,9.44923333770856,7.540177714560519,9.881670519609415,7.516782114807382,17.48394814007457,14.36013034617314
0.9404999999999997,0.8128,7.355632443377302,6.689872290433745,7.21861223999021,9.38811674488107,8.502461103034602,6.624195251195582,14.29207564549704,14.283913550634496
0.9444999999999997,0.8168,8.401051132649265,3.090424581858864,0.4623730201781022,0.6257546243384349,3.2716411792193467,5.908609017518189,6.4315208823344125,8.835286743217065
0.9484999999999997,0.8208,4.984002901549786,-2.3723223191159284,-2.906613418861605,-2.4910041935148444,0.2709437737463991,-0.9793298957202137,1.3397070512069251,3.0371466052754292
0.9524999999999997,0.8248,-2.816949702013452,-5.173732317647346,-3.903633379360147,-3.5844256973873256,-4.164394774694022,-4.57198553455912,-1.2912493027758094,-3.991883136690998
0.9564999999999997,0.8288,-7.570859639173009,-9.768520487898751,-6.626605566538378,-7.039266788147188,-6.166421380682368,-8.464795755185374,-10.593873919071966,-10.604372652874398
0.9604999999999997,0.8328,-12.43695198473415,-9.103221767748595,-10.4713018233798,-10.997385832173382,-6.504980476811755,-5.113140242861864,-12.053367898743545,-14.311904970505061
0.9644999999999997,0.8368,-15.67978590730077,-14.130976839377228,-9.364244768102978,-7.988692059691542,-13.28994014403216,-5.672454866416448,-16.69184536538557,-16.296309708515366
0.9684999999999997,0.8408,-14.07944110200442,-10.520462530227494,-15.582848497831446,-11.442259065124206,-8.292345582593793,-12.836348703137457,-21.676051033334836,-20.491687074576518
0.9724999999999997,0.8448,-11.934730386189095,-16.080253470539034,-14.107214687861084,-20.717078148682027,-10.199057934441154,-12.50784036251744,-21.775316350799937,-22.57864114860299
0.9764999999999997,0.8488,-15.362779692910483,-12.913818796640331,-22.93671173079931,-22.459642001186708,-14.496880120555996,-15.827441945922313,-20.828925732373275,-20.292776831342806
0.9804999999999997,0.8528,-14.525332735949577,-13.224949510356563,-20.13362745984659,-22.71215621932726,-12.579452598622705,-13.574845457350417,-19.820709134291643,-22.512019943269785
0.9844999999999997,0.8568,-14.516561918142031,-13.03676628899103,-16.973870730126354,-21.275354664915202,-11.357770811179519,-11.03685268838938,-16.68457238575431,-20.04145471372305
0.9884999999999997,0.8608,-9.302391032401864,-9.877768613969998,-15.28020397775023,-18.0991667243182,-11.924887978560683,-8.758107619220034,-13.116500217976025,-12.825418691125005
0.9924999999999997,0.8648,-5.46217203682278,-9.469268118480421,-15.319887883772903,-13.755858017584334,-3.808865725637567,-5.812760705136552,-9.733596133141722,-12.961968282937892
0.9964999999999997,0.8688,-6.448574741990287,-2.5636682203743866,-8.017180453439279,-8.80089247808344,-1.7754702040769517,-0.08199185065445525,-2.4124439853628825,-3.709493058205876
1.0004999999999997,0.8728,-2.65806495301797,-2.3839190495068676,0.4994540292635663,-0.5847842044027354,4.221841574815666,-3.388031406323471,-1.4932853637508137,2.613861106228034
1.0044999999999997,0.8768,3.3769740712809986,5.712516431489549,7.265113063902219,9.257723175272492,6.370125059448149,4.102975432442274,5.934449630266283,7.346075983723313
1.0084999999999997,0.8808,4.095076634715041,6.114221231938035,11.301690121244324,12.654878846111515,7.747703292497417,7.369572697475061,11.441545624137783,9.358607520679426
1.0124999999999997,0.8848,9.000343096326759,7.258315397787664,18.24944013107983,21.24816940585463,11.617950903417993,11.118431780183304,13.240095322949912,17.564274547046036
1.0164999999999997,0.8888,9.23985366869705,14.861584431687703,19.322006935061907,22.839606718508932,10.839604827374469,11.803406579087333,18.411955944463884,17.66513343874209
1.0204999999999997,0.8928,15.07432364259385,11.920013731297857,20.19092785284805,17.43708310920022,11.344637837877283,8.904573197801794,22.573094894535707,22.00265500811757
1.0244999999999997,0.8968,13.330602917027377,16.445764263842513,22.44454394379833,17.017774606413344,11.791616993479565,13.232515134198554,23.55915217406834,24.390720561792847
1.0320999984741208,0.9044,16.99992047205211,11.020478680482068,17.93691753165782,12.822851520184606,9.115410833830428,11.949975605022908,21.02547180673333,22.351343377652945
1.0360999984741208,0.9084,12.597172433843028,9.548302770397335,10.667820167824907,12.193630063151875,11.000893323555664,9.51299329812323,18.735886383899505,14.969295486859746
1.0400999984741208,0.9124,8.023722313552074,7.065602397958908,10.025482716206179,7.423408830724416,8.739237822221657,6.722506261013422,14.706327932769756,11.19277224118911
1.0440999984741208,0.9164,2.5864730462253016,8.969232162417569,1.1556237759214314,1.6423209481573684,2.5330312148437804,0.8477667317765158,7.359580485658713,7.230336944196504
1.0480999984741208,0.9204,1.4117426255630727,-1.8183995060433409,4.240385238452653,-2.2112343860713066,2.9508205944025097,0.6901434928016146,0.38816725319092527,1.6314011780220803
1.0520999984741208,0.9244,-3.180590892746891,1.3990581486556737,0.9499112575962239,-4.071156531622241,-0.36036690813429106,-1.1071135807405168,-2.591394526211222,-4.0629928089951335
1.0560999984741208,0.9284,-2.7112916886545726,-3.943511255481047,-0.5602764051418054,-6.501492999738815,-7.027350268061707,-5.049287867150269,-8.755525010437406,-8.766830033226684
1.0600999984741208,0.9324,-8.096730427048623,-5.580133504664935,-9.342285577028012,-9.739756430226274,-3.6069445590155027,-10.74523542800357,-14.197826461503432,-13.104284262915936
1.0640999984741208,0.9364,-13.210946909727287,-10.65719127625134,-12.691247636844814,-10.590779814203996,-9.047971220694283,-11.528138074410933,-18.436497319656805,-20.05767887706765
1.0680999984741208,0.9404,-13.925546205590464,-13.547420505053413,-17.078785723082746,-11.120152851420196,-14.425979528763706,-10.337565651522866,-21.73507667904754,-18.809063323034575
1.0720999984741209,0.9444,-10.911439441276123,-18.122336086016716,-15.066139604425153,-14.935805279779274,-15.275972353957556,-10.292650817035831,-22.22648224520614,-22.431293413415357
1.0760999984741209,0.9484,-18.698131244441377,-12.708801896213382,-20.778691859510317,-23.440440601687314,-15.280692407114051,-9.648081130343842,-23.31090725807152,-24.658143086949856
1.0800999984741209,0.9524,-17.337117532698727,-16.31120097496872,-21.434886744771,-23.64834377094224,-13.927735638628718,-13.52175044081622,-22.73693931792852,-19.352421320557013
1.0840999984741209,0.9564,-10.748933977300517,-15.479605152147318,-21.971686654196823,-22.13922423652123,-10.549488372483466,-7.832964253178474,-19.847867363677306,-18.60658794971018
1.0880999984741209,0.9604,-14.129703355019815,-13.424444058826076,-20.075049803646973,-13.78860898263699,-6.473178301410971,-9.464013780011118,-14.530330049254339,-14.78515287531057
1.0920999984741209,0.9644,-5.337079664632446,-5.0634762306509415,-15.873238881054892,-15.14116604500005,-8.618254063679043,-6.062110621739399,-8.76078077126727,-9.810836064729349
1.0960999984741209,0.9684,-3.983434611252374,-2.808628067277402,-5.452935742083031,-7.601166218297561,-3.037042231619311,0.19190836755782037,-4.05145824224076,-5.9720111033276355
1.1000999984741209,0.9724,-2.4491536842224657,3.7439458849462635,-2.4873077099686656,-1.9155421062637588,1.5622442594346202,0.06815557788344426,-2.5576447906412043,-1.0908131081638266
1.1040999984741209,0.9764,5.838073594840175,2.9419308707730343,7.479444192786198,7.014641384398555,-0.39927659827490736,4.704017945249672,4.7500373136938725,5.7158465757425185
1.1080999984741209,0.9804,9.564756918301654,9.171703766775536,8.925759692227796,11.6069356144118,7.523087174102654,2.1093737356944198,8.860271682959176,12.738246221135974
1.1120999984741209,0.9844,6.4364821431998545,6.397992142256825,15.645530517327924,16.360967662627264,11.399275297674437,10.260862854973926,17.748174890589446,13.563997352901122
1.116099998474121,0.9884,14.585672424139158,13.497157978590039,17.060867895263815,17.613590156274984,9.648815507729225,9.142461174152356,16.55842279692933,20.818813939202176
1.120099998474121,0.9924,11.925078569770614,17.82258192999318,24.518537962859053,22.47177157303088,15.328909272573545,8.986538995601856,23.149926142228985,22.902227562803454
1.124099998474121,0.9964,18.24663304570791,12.954416257415012,18.41200798571555,20.22835869124209,12.924278701651158,9.235757220651642,23.725038481087115,22.27763470894889
1.128099998474121,1.0004,13.158487677825669,18.455695964544255,15.192668672005425,15.477375448998373,9.395923880178021,12.97481623634954,24.027274426105812,20.561380494014756
1.1290999984741212,1.0014,17.731787077879236,16.771147395671676,17.836739668557982,19.428217890603527,12.916764668626847,7.813729043223706,23.77788537653013,23.286457549716378
1.1330999984741212,1.0054,10.845436422976743,15.949792668893794,13.53853848982122,12.144849484544121,6.6984567864467515,9.763637596622786,19.353578461270033,17.233494138635553
1.1370999984741212,1.0094,11.569137720321596,14.304581947054816,7.631375416743381,8.785711900634144,10.042233201357032,8.93073331216621,16.807241348871884,17.84358475983718
1.1410999984741212,1.0134,6.841295561537231,6.847591643470961,3.5854480661072694,4.759830571795829,5.285170926706166,3.2390884770137296,14.48251188911491,14.538111660489124
1.1450999984741213,1.0174,5.13388135749418,4.256228816666067,1.828329704526213,0.733903965285287,1.9594930960970367,2.090181673008193,5.357015558542365,8.86218061693113
1.1490999984741213,1.0214,-2.5464805670346324,4.089776185212182,-2.486188909969945,-1.234737882098984,-0.030887352494016085,3.568432665581038,2.736968966323105,-1.4854496743241663
1.1530999984741213,1.0254,-3.6711941047653087,0.14730186259333644,0.5195033043817903,-1.5934053034595599,-1.6798920995936224,-4.172706651524626,-7.066159695575708,-6.80267175102619
1.1570999984741213,1.0294,-7.138038094081594,-2.803232231982977,-6.886416606524598,-3.0884466183574846,-6.116277697082185,-1.8441737429122256,-7.474164539948299,-12.222186350990878
1.1610999984741213,1.0334,-11.766798525444399,-11.014964967391617,-11.282642888664997,-11.853847555434156,-11.058033253395951,-9.7994059715978,-13.956496916328122,-13.398599241334821
1.1650999984741213,1.0374,-8.371945326228552,-9.208081171816701,-15.870430594886473,-15.583581163749933,-12.69721353834068,-9.566045475118358,-19.269367766134593,-18.00349499333964
1.1690999984741213,1.0414,-14.187509632167554,-16.542367333045952,-12.641671437561786,-13.735270275303748,-12.92637228225329,-11.880024352643662,-19.797095214464807,-21.736686559653563
1.1730999984741213,1.0454,-15.872248712070625,-16.251928081535866,-16.48052194014914,-16.260276454332562,-11.127398676725802,-9.750467635847041,-21.498867673387316,-19.902827488035975
1.1770999984741213,1.0494,-15.166767182342074,-12.03997186841258,-21.281863555928133,-23.618355919785152,-9.108256468270254,-8.609236773879857,-22.698217392960856,-20.646489663887547
1.1810999984741213,1.0534,-10.0328574774827,-14.064924477501796,-21.398317925621885,-19.395440650282655,-9.155595090158105,-7.866682220942669,-22.673760963613347,-21.58678072883435
1.1850999984741213,1.0574,-9.628349593425988,-14.69243597299479,-17.14809006761083,-18.677301904858922,-9.88480572173139,-11.952797962332719,-20.13501753519422,-19.1796304421779
1.1890999984741213,1.0614,-11.42954484966504,-11.233860654040178,-17.344061257313808,-12.776638251043279,-7.626161013861175,-8.97720724802563,-16.484513903506794,-15.070519622147252
1.1930999984741213,1.0654,-8.575795892093055,-9.784516646864038,-13.936308013801057,-9.28182775478566,-8.489837688649594,-8.49050619107084,-10.535008007600783,-9.978963308320504
1.1970999984741213,1.0694,-0.2960568242208299,1.0738803073341212,-2.6009683494804934,-3.916588510009513,-5.355059080650095,-0.17867976782441586,-2.8770373062323378,-6.604125552475185
1.2010999984741213,1.0734,4.930040838198424,4.553558736320904,-0.26517203979027504,3.1259233700612956,0.2591745121887853,3.702124626662026,-1.079092276878511,-0.4100101618686245
1.2050999984741213,1.0774,8.253522069455261,5.408908706249133,9.553101688097849,10.827805066059975,0.5085625358232284,1.106994091713974,5.867030002537563,5.015546987030867
1.2090999984741213,1.0814,7.250132106999922,9.018101384110363,14.345990230086322,13.036250345018153,10.142493567270463,4.340250294306702,12.29996182462089,9.384811120467003
1.2130999984741213,1.0854,7.193865154746235,9.463886140191779,19.44656807009181,18.635074649278934,10.74737351658053,6.669636968961161,17.974773042062576,18.866572442665124
1.2170999984741213,1.0894,9.77956556062438,11.13225490104496,23.98024996979779,23.45560599552098,8.644355212797478,13.963202601506854,19.21747828402808,19.370784750141205
1.2210999984741213,1.0934,16.015972617671206,13.151652344042885,19.58996529281897,18.561002121801277,8.439401733353591,14.633382861815157,23.016247668339815,22.24573631313209
1.2250999984741213,1.0974,18.757982966886,18.0063660299668,17.048442501721766,17.226475634828315,9.02376209221944,12.08551399373195,20.34659759363339,24.348957786099593
1.2275,1.0998,11.547068606469455,13.721055721174757,20.527878448980683,20.308107383584755,9.871521469511084,12.817690416004202,21.445979515211974,21.786043870123162
1.2315,1.1038,13.777675622382947,16.972004079361255,13.133731372193274,14.29817807428109,10.323549380657578,13.63786832113476,22.87691910048672,19.820555511546623
1.2355,1.1078,15.83625774806005,13.863135463938175,9.003857745880754,13.57617734122696,6.647563163304359,9.310402587996244,15.326441338809465,19.831099641893054
1.2395,1.1118,7.719928488054945,10.212465203687028,9.985802216756383,9.08241276164956,10.227687012721958,7.087097319263454,16.467043282566088,15.879042360132964
1.2435,1.1158,6.588666574993176,3.540484182759921,3.10393918732834,4.738316171481371,1.7616811739791718,1.279928229752664,7.807240105837888,7.808740606521575
1.2475,1.1198,5.6015073056262565,-1.637337812258977,0.4959230171725231,4.240991398125062,5.25604155506346,3.5609041972852693,5.048954981370687,3.6403439545353895
1.2515,1.1238,-3.3973795020417006,-3.2951289672693367,-2.5975277550670914,1.911443595725963,0.019049638219063247,-2.6602973680394495,-1.856373904712287,-2.163248573613828
1.2555,1.1278,-6.642690205998752,-2.8391918977923893,-2.4468861088236746,-5.988605328795367,-6.395826175546424,-3.5194718652644292,-5.485767458846272,-5.648906117856759
1.2595,1.1318,-7.904181189018996,-10.40545380815233,-8.988893851580503,-3.654348991197593,-10.168967381414848,-9.671474907544532,-12.433559404743658,-14.172128923791183
1.2635,1.1358,-12.28804522929379,-7.447447509469441,-7.082514327922147,-9.040401572759837,-5.817795317682058,-7.575320175322296,-15.50068196003075,-14.502071513164731
1.2675,1.1398,-13.515117174556153,-13.645575292848365,-13.195092760519856,-12.061283220741235,-11.80337047770562,-14.273805174191306,-22.81994695439825,-18.38132121258452
1.2715,1.1438,-12.389358035809234,-15.991027794499585,-17.63972200941912,-15.525497585604903,-9.501072821075994,-15.536436673436027,-22.051677046904494,-21.584673886418067
1.2755,1.1478,-12.707000132263115,-17.78049667246381,-16.899446846383565,-16.679777537032344,-12.023081953785029,-10.337959598737719,-24.610088154174502,-24.443142035306842
1.2795,1.1518,-16.116029518854024,-11.023030537686175,-19.020560663698046,-21.17433412086827,-11.133536685793295,-11.704108898062373,-21.39945336901965,-19.8668430221599
1.2835,1.1558,-11.039995988325696,-15.086112267009714,-21.697805401618197,-22.523474583634762,-11.868896139671808,-9.308299153695572,-17.338747860796293,-21.388019252592674
1.2875,1.1598,-11.955533642020821,-8.897400971661384,-21.6033704337951,-17.973560700133483,-11.68659552164137,-9.756711427551043,-18.46187877711985,-13.68035036586207
1.2915,1.1638,-3.870471342389311,-9.25491311225538,-16.35589661889695,-12.499053793908622,-3.3746571193987354,-2.9204963207123713,-9.036121735576662,-14.11430789793721
1.2955,1.1678,-5.009174086091312,-2.127990684187468,-4.12274629828022,-7.9474812848627945,-0.5457077428064059,-4.735948663054959,-3.6389324414238766,-7.878908765041437
1.2995,1.1718,-2.7359669318792808,0.5934671535002413,0.5060794304713743,2.575590512051793,0.6104360534226692,1.8809107481592087,-0.04918165401880514,-1.271615688012475
1.3035,1.1758,3.861627297723988,5.99693614109128,9.07596364665734,3.936198747288762,2.5196610500622527,6.302058661877798,5.345712567422004,4.146786691828321
1.3075,1.1798,4.9133978679939085,8.967267943278864,12.488233570204033,8.957522033699497,2.2823509529809733,8.729078785004539,12.211689029911698,12.850048096419489
1.3115,1.1838,10.070825215944886,11.528904459773056,15.4396026986441,15.819082934611572,4.490826697515064,4.206200792888766,16.629115912098495,15.337184807449736
1.3155000000000001,1.1878,8.426099325634272,13.90594655383306,20.945282192051515,21.390107828895985,6.348946811596147,12.347698371471722,19.107541727941086,21.225540395312834
1.3195000000000001,1.1918,15.283250275046028,11.994120539437361,21.014981987185994,18.81682810422997,8.077082632526803,11.847556998647628,20.472792619524313,18.626265420340964
1.3235000000000001,1.1958,16.698891702370915,12.44731557774885,23.328355831416083,16.795549612119913,13.495686719525194,10.627017218471412,22.388622012443967,22.642653731488945
1.3332999992370604,1.2056,16.497932589525195,13.450539473093329,15.428691251169628,10.641039468342132,12.709998284973281,8.215528021223536,21.795471720476797,21.161316267673534
1.3372999992370604,1.2096,9.37852519044867,13.913438868329635,12.279967104179669,13.46394084482668,4.985040897680356,7.477366707148202,14.735686075016151,17.84626062808779
1.3412999992370604,1.2136,4.151260046107401,10.106414851367278,9.867773625577946,6.130773014914826,3.2313476501048326,6.16316626762811,9.817418428501812,11.418370592496943
1.3452999992370605,1.2176,8.02361276308444,6.367475390314233,6.112659785460808,2.4338205759101186,6.9478226901309235,5.556987605409743,7.974245281559623,7.693923268487401
1.3492999992370605,1.2216,4.275504434470115,4.568310784880631,-2.5039592931328962,-1.0101710196097056,0.4896366879160482,-1.327730645232719,0.9224946992029485,-0.3575373148095423
1.3532999992370605,1.2256,0.4646193598864925,-3.7467515965422957,-1.5443829938357672,-1.8731411250581615,0.7034066475159921,0.8489793151081724,-2.164489976679573,-2.1785374145336505
1.3572999992370605,1.2296,-10.171760627491793,-4.546808887266449,-3.261394699823544,-5.672675946241633,-7.173990390597656,-6.690450987060907,-9.524372024963032,-11.617175448776855
1.3612999992370605,1.2336,-12.588100771395926,-13.076844173411482,-12.379658058987937,-9.32424423208988,-5.505958466642274,-10.748247009273538,-15.686466488171263,-12.068444445643372
1.3652999992370605,1.2376,-8.562184992686243,-13.91505717214277,-10.200623728108138,-9.842029550314713,-5.918405324108159,-13.050260353972362,-20.90324450640993,-15.660577853054093
1.3692999992370605,1.2416,-16.97633851850427,-16.517126528091605,-14.853845282402425,-14.27936384264843,-12.405034292853038,-8.492148049531941,-19.27621274010272,-22.829541658176527
1.3732999992370605,1.2456,-18.820462559327655,-14.228827297412685,-19.98823626580703,-18.398807217648503,-8.529880161207934,-11.855311218697963,-20.12411324839063,-20.284290274375095
1.3772999992370605,1.2496,-13.14447672826941,-15.595512205231188,-21.2949473654338,-17.689444121737885,-11.440094964975518,-7.976821731001807,-24.223377674846464,-21.574503897220147
1.3812999992370605,1.2536,-17.60245741598851,-12.346223860711003,-17.699085471808147,-18.47284319013696,-14.69657049798299,-10.654209270337546,-20.27687583790256,-23.452307317633913
1.3852999992370605,1.2576,-10.469351210019756,-8.531714589952013,-19.00573674048571,-19.760127940872252,-11.7289465301027,-8.216243916741593,-16.781024078007434,-17.909880578877317
1.3892999992370605,1.2616,-10.013178898974461,-12.545043354053151,-18.041946120969136,-18.599759680553767,-9.48177422193889,-7.484610083103217,-12.176859303988861,-14.762208843011294
1.3932999992370605,1.2656,-3.4994771789772043,-4.508288314898667,-13.420498536698183,-11.464135819568398,-5.96592533530616,-6.9444250904569715,-8.616237295173937,-7.751986922818523
1.3972999992370605,1.2696,-2.9737474101969132,-6.245075712478095,-7.427741523868551,-2.3320957846352273,0.8466777622047617,-0.05375021023193716,-1.541213514169351,-1.294466194731927
1.4012999992370605,1.2736,1.9230691936485766,-2.6512844320572593,4.8869393815386735,5.723361698553027,-0.5565994910758696,2.20099406879296,-0.4213976363416656,-0.4844004290234418
1.4052999992370605,1.2776,2.7863322311011887,8.084748263105134,11.581298356924407,6.121083986487522,5.612005660837287,0.888820468991331,5.513437614652068,9.874704232316752
1.4092999992370605,1.2816,7.888613679110888,8.517671702042556,17.14220568337397,16.149681390638563,4.083643742199137,6.43182806595966,11.936423770041738,11.924089306457855
1.4132999992370605,1.2856,10.494098942880058,14.618176917953381,14.677274477204799,18.768219546667076,7.128782316366665,7.426106412170337,14.086076523839376,17.77348864986928
1.4172999992370605,1.2896,12.670335943727839,11.237782317187339,19.45495077835378,20.665795120884074,13.044777026083377,9.774378932424035,21.602793360377127,18.018694905852165
1.4212999992370605,1.2936,13.871507771158079,16.189776732280855,22.196540801273084,19.22175500043932,13.598768413980196,14.832827575048544,23.689171918855465,22.37413592404743
1.4252999992370605,1.2976,17.693583519784553,11.397332894499058,15.410798031686939,16.3266974013684,8.993377955800305,8.182725662284685,21.391361310184116,21.57696660422336
1.4292999992370605,1.3016,18.24826820673001,16.086074482550988,19.3954537886378,13.270703686068927,10.302697190532328,11.418183484496776,21.662250717512197,20.26418459259571
1.4271999988555901,1.2995,16.11915054032241,15.804550418883814,21.56762444073039,18.364309670565888,8.90459318211935,8.923007348825333,22.947966789186058,20.753755608289236
1.4311999988555901,1.3035,16.478064183720214,11.975151104305757,12.198703611244397,12.430219402657151,7.463663873401355,11.785794955638092,23.20308481219185,18.2014292262441
1.4351999988555901,1.3075,9.625646644335799,10.32223750729901,11.65544979341023,14.420571780954086,12.012153435430847,5.998895457956013,18.973469285847617,15.427602829049224
1.4391999988555901,1.3115,9.037995744477824,10.852604203958371,10.404983923015472,5.614069165404464,7.3710454129704965,6.525863425938993,13.821786157177186,16.458016257949186
1.4431999988555901,1.3155,4.166903958682401,8.224948695778227,8.157158959312259,4.700312698728102,4.554366770304153,1.8259897796962532,7.00876530753039,8.251247353876302
1.4471999988555901,1.3195,5.437533563309074,4.020195711896614,0.23995318310341762,3.20088948965734,4.854181861705742,3.00024723086528,5.9160140208344,6.549220695700214
1.4511999988555901,1.3235,0.05744196611029895,-3.1882714589426424,-2.2545535103674026,-1.2395790212166218,-1.22187161718059,-0.38535641429970235,-0.606043681058692,-1.429934993514267
1.4551999988555901,1.3275,-8.351643372217405,-2.611279670662973,-5.135683576805461,-1.7173837849947144,-0.5567353406626996,-1.3025584972280662,-4.802731835882973,-8.130278819073945
1.4591999988555902,1.3315,-10.35419647700935,-9.615753371902379,-9.411917437956813,-7.369013760814813,-5.298568490652937,-7.976942169795826,-14.725853841090055,-10.103151374999229
1.4631999988555902,1.3355,-10.757353103268752,-14.433186767433437,-7.941747891747562,-13.632969010794458,-8.130803408704278,-7.022778404957267,-16.90225089376408,-16.25365917596419
1.4671999988555902,1.3395,-10.609696184980901,-16.039437209163545,-17.271679430652554,-15.367339685583675,-13.248338014288565,-8.933788624853422,-18.86204920723434,-21.9453364320636
1.4711999988555902,1.3435,-15.058512754991144,-10.76166708037383,-19.649168639239413,-14.871699010960509,-8.864936206274882,-13.513605540723372,-22.143535259134804,-24.019512454261257
1.4751999988555902,1.3475,-15.05459571117579,-17.55509421300361,-23.00506295173489,-22.541319305231795,-12.743115905509319,-9.666374616621702,-23.067301304202125,-22.826514511332427
1.4791999988555902,1.3515,-18.250296862668606,-17.03347073112104,-21.530992684035205,-23.18446446991471,-10.901746145144735,-14.632814515856866,-23.546190137656865,-20.61402408652399
1.4831999988555902,1.3555,-14.717214273547665,-14.395620339159695,-17.04255266666538,-23.20311977124079,-13.38950702255936,-12.45113039662311,-20.687811999921735,-18.639521737242372
1.4871999988555902,1.3595,-10.628988095229904,-7.028646368526065,-20.75506932618805,-18.403233984240767,-10.30675686252441,-12.27842652923759,-13.700620310606592,-14.895077051920088
1.4911999988555902,1.3635,-10.996059616431797,-8.294630818383027,-11.578461847584512,-14.396732683839932,-8.929479167475238,-7.859313046811449,-14.564757791328722,-9.923662943673182
1.4951999988555902,1.3675,-2.096940698536562,-0.7075779331317609,-6.605470670240607,-5.136454261122709,-3.303962638862364,-5.146863340501683,-5.073218127240569,-6.3566132869836
1.4991999988555902,1.3715,0.2859165612598751,2.5293403877455933,1.5975785151811412,-1.3123148368083863,-2.1113455813702435,-3.921121784539129,-1.3684187958824539,1.3729795664698314
1.5031999988555902,1.3755,3.153883923473267,5.853888302959223,5.950496080283704,3.332756988927446,0.8673606309602269,4.471011073494939,2.188572945549093,5.308550699410549
1.5071999988555902,1.3795,9.281019519444815,8.018192391381383,12.93626014023718,12.221029832576445,4.296017169079615,5.832711853657984,8.276800778157751,12.082616601058207
1.5111999988555902,1.3835,9.203806325089664,8.995824475977411,20.38781603922546,16.861147711961376,11.614920908804727,4.97974036557185,17.139274058052283,13.156762799648682
1.5151999988555902,1.3875,8.741515797321151,10.501296114511735,16.422852678245974,18.575587535132048,9.99259777205349,5.981851837830508,19.91290434943667,20.993202862606456
1.5191999988555902,1.3915,17.043863500348632,16.650329656277847,16.92589043066135,19.254701053942576,7.76487714661151,11.847216426705629,19.844338355397387,18.474779342385933
1.5231999988555902,1.3955,16.165499361362183,18.023063227875895,20.655361460010923,20.133867761745325,14.49532649244942,11.169780014671021,21.68528432192468,22.629973717542395
1.5320999984741208,1.4044,9.868141774447697,16.48793295062446,15.400576374126473,11.826896772124336,7.793685789820574,10.80957898477732,18.91882244788433,19.72580100977296
1.5360999984741208,1.4084,7.732463103541798,11.257402483532829,12.476347669306431,12.771258326932823,8.671923110479455,12.300772928594657,14.874064786768542,15.212180853014443
1.5400999984741208,1.4124,9.422427797081852,10.58021138760951,9.58015755979051,9.711586541013823,9.397833928793556,6.29578081117762,12.804277997123595,12.44880249142345
1.5440999984741208,1.4164,5.353308720135923,5.912219894979842,7.45190704377934,3.3597596503081713,1.7030080106331678,6.40184806760779,7.394730367517857,8.260147243786035
1.5480999984741208,1.4204,5.2835884200895284,3.4187617213119124,2.2306276614534295,1.7183030804709531,-1.9173610221584918,-0.24195512877534076,0.8634883067810379,0.05745507325266086
1.5520999984741208,1.4244,-1.2356697902081275,-4.943422688799313,0.8784744507662752,-3.454101540856807,1.4180031756443667,2.1767952257574765,-2.967571809032776,-1.6025141140045815
1.5560999984741208,1.4284,-5.28557657740081,-2.5991771182709478,-8.457824963339068,-4.133286528628784,-7.723105301448975,-7.187353486668692,-6.743121212007511,-9.36344585232658
1.5600999984741208,1.4324,-11.586915942059989,-8.66813109391774,-11.307246839392928,-8.086110115073767,-5.069276154841692,-5.799781085450085,-10.822043332424244,-14.348957312663487
1.5640999984741208,1.4364,-10.065551343903675,-12.258506795341923,-10.907898983980704,-13.26265163114891,-6.443468635543522,-11.634826739455807,-15.52211036284393,-16.749398954008527
1.5680999984741208,1.4404,-11.342062215903372,-10.236069520584579,-17.94209048754662,-14.973828920659733,-13.255575204081445,-12.594407452509563,-20.66710993663454,-18.019095931204685
1.5720999984741209,1.4444,-14.360847826710241,-15.516292905405642,-14.464097123457048,-17.0757258353882,-12.122146352504346,-14.481410570345261,-23.698858166229908,-19.68572824460296
1.5760999984741209,1.4484,-16.36190296434496,-12.490953052407818,-17.62614240552487,-20.23120653406474,-11.984934875197059,-10.88198852946097,-22.62290955650181,-22.789921477325542
1.5800999984741209,1.4524,-12.782300355130225,-17.53191085897901,-17.146602753745285,-19.347296445905908,-15.053985949304902,-10.49990089547893,-18.69024975029107,-19.623721092537725
1.5840999984741209,1.4564,-15.744058042986591,-14.55680730851789,-22.767337633675506,-18.117857898286896,-9.390079526312766,-7.589239469604584,-18.784666212706938,-16.553491574847886
1.5880999984741209,1.4604,-9.721270731346987,-10.81134375341533,-15.135407189419336,-14.281754917993947,-7.440963606975177,-6.727158236712501,-14.467677356581698,-16.714974145022474
1.5920999984741209,1.4644,-4.870758743385224,-9.64618711152993,-14.33686228576957,-13.658251966250923,-6.54038434037135,-7.109519635124951,-11.346353364527905,-13.313769820607714
1.5960999984741209,1.4684,-1.1452074242562658,-5.562017884026204,-10.32950736134585,-4.196570992882291,-6.551396716992919,-6.362646184964422,-5.059047839791197,-4.105058343392089
1.6000999984741209,1.4724,2.5640927516279097,3.3729443080349037,1.4202260060122818,-2.732880561027153,-2.140288915220791,2.84117355300144,2.896029139939363,1.56503492940077
1.6040999984741209,1.4764,1.487014441752562,6.475684502707207,8.652181155444453,8.03567509300664,5.333396757456079,3.2322683023209264,4.976109904649535,4.934426833936103
1.6080999984741209,1.4804,6.419218467542229,5.243064064542021,15.093203934663705,15.922238947627221,6.015303369349941,2.8182586968943237,12.405848109278638,11.551177920913945
1.6120999984741209,1.4844,9.04021661570436,9.753381086133446,20.222810483276376,19.76648753929623,10.942453807983807,8.298957430918007,16.95902953737538,13.906723025861517
1.616099998474121,1.4884,10.492389127036466,10.669589890673503,19.40151406873824,21.932879060033606,10.97939147111168,8.8000852170111,19.471573086862193,18.760760221046375
1.620099998474121,1.4924,14.80012955466534,16.15330744480702,17.609630208574195,19.664720151836274,12.255323404495556,10.182074121945465,20.457847302699957,19.840525653322977
1.624099998474121,1.4964,18.36777219642414,12.043948442133406,22.61045938459597,18.264865389192586,13.530497005645618,10.215551063761746,21.052973456107825,19.946746633205247
1.628099998474121,1.5004,11.745199960348373,13.751888473663325,16.05576279283117,18.105359317638808,11.046654768503366,12.583264503391563,19.277573751322752,19.9333059490346
1.6312999992370605,1.5036,14.244932558083994,13.725893432523577,12.610982594769837,14.502685601281629,11.759572180439056,9.067253451817104,21.47791372736579,18.602469759857822
1.6352999992370605,1.5076,15.025332174005332,8.992957129432263,11.824170895878268,10.695962619427258,9.48027862806157,7.849019918956609,19.32152897262455,18.82168584973812
1.6392999992370605,1.5116,11.02496315376924,5.540817410575519,11.751813251741863,5.667186293891627,8.04692227731692,9.380246592800466,13.457133807573985,15.473420564390677
1.6432999992370605,1.5156,7.719102944713243,8.917676485972176,3.931146153033797,1.7807221573694028,5.391782548224659,8.5367554672209,9.406202297569848,9.55521737121251
1.6472999992370605,1.5196,4.726438471546912,-0.04721557158381984,2.3526853630642663,3.6148200040413228,-1.0992588510592642,1.9498045762747425,5.501681113899139,1.7097707950577719
1.6512999992370605,1.5236,-3.279903115177593,-3.8352308964059363,-0.07280073981805735,1.9841057494449874,-0.6985173866692236,0.18412459597016806,0.5396572532771748,-0.5217997975074828
1.6552999992370605,1.5276,-7.263883176855748,-3.58212666213546,-5.59049642077488,-5.742111926701689,-2.989144326807642,-3.993930400023813,-9.386250294552063,-4.907827118269376
1.6592999992370605,1.5316,-7.65874506782393,-4.3332950686394085,-11.010899984684976,-6.718231643773298,-5.4339187256580725,-7.610927793585665,-13.613670469508254,-14.160563985232274
1.6632999992370605,1.5356,-13.352436588193171,-10.411673623196608,-9.441735552070147,-8.22692892888945,-12.099358592849502,-7.613922654131722,-16.103051935615877,-17.032743578632147
1.6672999992370605,1.5396,-14.37142259474058,-15.7466005891472,-15.824433644586211,-15.738726651454934,-13.955543858091836,-12.492229830394432,-21.440359350923494,-17.55332601542417
1.6712999992370605,1.5436,-17.2748824112709,-14.845885279246502,-19.878464350966723,-15.327798285940451,-8.622332696874395,-11.21067340671371,-22.64581468509162,-21.38065230241868
1.6752999992370605,1.5476,-12.573935571255625,-15.04840584545006,-16.397112310822912,-22.715416146839285,-12.589406192242677,-11.930657266041898,-22.032504295794045,-25.268595144252178
1.6792999992370605,1.5516,-15.853505757536526,-16.271552424594937,-20.02082515230945,-20.83402953714905,-13.0955587244686,-11.23710812434989,-21.429250647886448,-21.20962360379447
1.6832999992370605,1.5556,-14.208967160511072,-14.145359575059135,-21.523650508741902,-16.84144604689709,-8.043492416741108,-6.95870255220756,-18.122272602846962,-18.53795772818094
1.6872999992370605,1.5596,-9.284659964592997,-9.28405458467661,-14.97573445592227,-17.734440475725794,-5.431262203679757,-9.426147908931767,-15.864771655934765,-16.833764441270905
1.6912999992370605,1.5636,-5.0357685979710105,-7.659684174805457,-15.50336451680426,-15.4327643927348,-7.296472220926511,-4.810741961224639,-14.228397670109397,-13.054791378778313
1.6952999992370605,1.5676,-7.44693600663036,-1.7892133412199724,-10.189928975994658,-11.025257012027236,-0.31490943794839765,-7.4084300300317025,-6.111046544413087,-8.274870296512553
1.6992999992370605,1.5716,0.5157229917214164,-0.6883267287818481,-0.017706559568359204,-0.5079333659913555,0.3793614358208789,0.9128944901061603,1.4649130683109288,-2.732579668300975
1.7032999992370605,1.5756,6.678948885732241,0.42646433450972676,6.584433361883071,6.28542677617067,1.9612825364765305,-0.18198091390901805,6.543495730307424,6.329679973031622
1.7072999992370606,1.5796,6.163016186623102,9.810759143871866,15.528578658674395,12.955068598151929,6.299229690572588,4.106175435142134,9.435950061827352,8.838682303932957
1.7112999992370606,1.5836,8.906668046532182,13.53865417891547,16.89753417153387,14.578001489430557,9.000718278786001,11.18641844856689,16.686215410972913,16.97314023677114
1.7152999992370606,1.5876,15.624345786266474,12.363901213350374,21.444601480331123,21.859482635174576,12.004262685583441,9.127739259497798,18.44768330077478,19.328285941668412
1.7192999992370606,1.5916,17.129705224367626,17.542608551569504,16.99045307509759,18.261244420161585,12.531530745082607,12.70534360581157,22.354639447238526,22.873419282644072
1.7232999992370606,1.5956,14.144044644299983,15.311543349319699,23.1006019548375,20.45118875902247,10.916337484482465,9.413467636359034,24.625486882023576,22.688994908714104
1.7272999992370606,1.5996,17.034309878048965,16.34287128215619,20.3927298585881,20.379596329222178,11.86098533841009,12.286051371342182,23.920097395243236,22.494146507676152
1.7325,1.6048,10.137426080399681,17.33171716824429,10.730853916486073,13.289301544798567,9.078685402534028,8.492717098207336,22.793727044201816,17.497480582230374
1.7365,1.6088,14.205991056255412,10.500781333500406,14.522694178096879,13.4680181145169,6.947159204348283,7.011252246520263,17.874085937179238,17.856703730639996
1.7405,1.6128,12.08188647214789,6.759500681850487,8.737292610309755,4.068971563115548,2.9398139401603993,8.56592677280857,10.536486370600041,15.140197392569105
1.7445,1.6168,1.2704270862975804,1.4137187223427574,4.294763492959591,5.56343580750483,1.0582111935835714,4.384992041521005,10.371134678871785,7.219758696778673
1.7485,1.6208,-0.007857978538190036,2.9768615123028286,-1.1809062109171542,-0.5202694842542173,3.963338323689155,-0.19511400808278645,1.1929114434621502,2.3450308348055544
1.7525,1.6248,0.9543014984943343,-0.8739358897733243,1.1147498063646473,1.641193161071178,-1.0552554382816388,-0.05864536820912081,-6.308012801603983,-4.894164102358644
1.7565,1.6288,-7.455997442501063,-8.02048081909134,-3.5635664539869207,-1.4059966970331352,-3.9401302010664283,-1.8161562593718035,-9.925570300107456,-9.722172202819763
1.7605,1.6328,-10.629615695699435,-5.737631824475967,-11.244128474051804,-11.403163339289318,-6.010371140403216,-10.22152350478645,-14.82717978831139,-14.349447528473576
1.7645,1.6368,-12.936536471643528,-8.00449120942181,-11.017117278057684,-13.549805037096409,-9.138334700213472,-9.094115567936925,-17.46566532241313,-18.214108727855184
1.7685,1.6408,-11.354362714291906,-16.69630542750741,-17.36309668101826,-18.44444150793452,-14.453519598860591,-14.674528009174534,-17.895082223743593,-22.668887512795585
1.7725,1.6448,-17.039534787355624,-17.94503506173856,-14.077358808431764,-16.993233790468754,-9.134168576392621,-11.573535432149004,-23.763802547344397,-21.248902941133373
1.7765,1.6488,-14.348147494248153,-14.860104359945934,-21.59157179089795,-18.333855560243638,-13.830373255285501,-8.558405357485618,-20.824439640970645,-20.79957978997078
1.7805,1.6528,-16.371415264185185,-17.73599645995239,-24.13552579044746,-22.89968338620855,-12.155083044228045,-14.812934570560811,-18.488500516451644,-20.068725881732668
1.7845,1.6568,-11.446362699439014,-11.454824118340941,-16.72430478366756,-22.70433523201699,-12.175161771549753,-13.431679146899544,-20.33765749502636,-19.645493247677255
1.7885,1.6608,-9.617632480669666,-7.960732973252242,-20.447175724159077,-16.230254010771304,-7.149977407138482,-6.601963805644625,-14.935493556338995,-14.188040454629634
1.7925,1.6648,-9.675610005713583,-5.7815248237081525,-13.768549349718693,-11.21665914003711,-7.8304828632725565,-1.8388306928331906,-9.603686471482277,-8.064421705244238
1.7965,1.6688,-1.269459687048382,-3.163259771986376,-8.419345980317178,-2.7668255203691543,-1.5810466844263384,-2.9043597160218333,-4.922778922441089,-5.750852410733519
1.8005,1.6728,2.2908181978695827,0.4284282954768777,-0.6870864946570261,-2.1969026122689455,3.3586279723444585,-3.4224926441734445,-0.49542995058123185,-0.9657615667156201
1.8045,1.6768,8.130861404082184,7.516009588573847,8.552412779147136,10.135735392563676,4.631388213758578,5.184146745235973,7.936965091770443,4.826122560666788
1.8085,1.6808,6.547617808059863,5.6650111102371925,14.748042743303465,16.71439370653372,3.473745111262814,6.907800885582783,9.170501219278034,12.05237056228342
1.8125,1.6848,13.537058384979915,9.595295894473889,21.588283445337286,18.631948362752304,5.511293153590257,10.64302629561906,17.842157902414804,16.462219804212758
1.8165,1.6888,16.528305878947975,9.811842996295498,20.440342293406054,21.931973895922102,9.636383789041442,12.671556143466553,21.09023793429618,19.660521149057807
1.8205,1.6928,10.861919437386637,10.717049749099502,19.718993754616637,23.04711680247035,11.85552296794981,10.34249832273448,23.54213219971565,22.540035310694847
1.8245,1.6968,17.549698819661135,14.00116139245052,21.21745514366942,19.731450599708968,12.997806341030191,9.09258101728767,24.293391132649962,19.939123211115476
1.8285,1.7008,17.9372239940313,12.585129272591374,18.508215633353924,17.312526376960083,13.990520183446256,13.827459265372058,24.70970122020192,19.355227408279145
1.8344999999999994,1.7068,13.747365859537295,13.407083510934655,9.67000968538255,14.733536116651932,10.662002785608282,13.767466509477124,17.14329917981371,20.421284506980847
1.8384999999999994,1.7108,7.157746107990572,11.051657358591516,12.525280812823198,10.212524867526412,8.830327105053597,9.286811485473562,12.911891943861894,12.701551847095775
1.8424999999999994,1.7148,7.890395690435621,7.92859705213864,6.5001003950176806,5.099328084315319,7.309529311424887,8.275326528566378,10.88595402889396,10.119436970115828
1.8464999999999994,1.7188,3.7863633723678554,-0.5003388159624844,3.958400023507741,5.006110650248856,4.277073872572343,4.701759358250955,6.1795146084041175,5.779366759524187
1.8504999999999994,1.7228,-2.2867614421323434,-4.346125952880627,-1.0165129582349095,-1.72609715543521,-2.06392990811363,-3.631691192949925,-2.917519945448094,-0.15086878472012488
1.8544999999999994,1.7268,-6.546326882767986,-2.24677319085752,0.2013999343533026,0.08734425323821249,-3.268353309970498,-6.583334454323515,-4.877074150287163,-5.565144652482196
1.8584999999999994,1.7308,-9.775961810572415,-5.935237034113936,-4.394810247411945,-3.053707503360363,-6.491233328531242,-9.265693299686964,-11.559066565108212,-10.90089228476688
1.8624999999999994,1.7348,-6.783348522959552,-6.846026167797331,-10.187061160915304,-12.029559257547817,-10.043488572634718,-6.757148700914327,-17.540829978512836,-16.340112438817865
1.8664999999999994,1.7388,-9.777117998851926,-10.151365301344796,-15.17288669108046,-10.151120849028572,-13.777734392007314,-10.386558579685309,-17.342654356190575,-20.857560182919087
1.8704999999999994,1.7428,-12.359030219394633,-13.86760984119222,-15.918105034271449,-17.518311367110723,-14.48575039246662,-8.836044667747188,-21.869282968607585,-19.053536726443536
1.8744999999999994,1.7468,-14.623702506982811,-17.265464019968718,-20.920607068027337,-17.768853141886524,-9.346062248713325,-13.23764150651009,-19.746561553802735,-21.074215791925013
1.8784999999999994,1.7508,-11.692506724759394,-14.85428192365237,-23.729374036416417,-20.68958824957175,-13.6903147177022,-9.19848622024356,-20.43091253789387,-20.285313545768766
1.8824999999999994,1.7548,-10.215997613485722,-12.305740161592194,-18.235097242463212,-17.162800572458856,-13.134131400532336,-8.175857933925155,-21.296095723586706,-18.611387226023442
1.8864999999999994,1.7588,-10.016470006687058,-11.286258940357623,-15.158191196238434,-21.102049081281105,-12.846437961020635,-5.255071802677952,-14.630820994323471,-16.383102533879445
1.8904999999999994,1.7628,-9.292758939083182,-9.563122420424467,-14.025480812252345,-13.355422288051217,-10.274727186770516,-4.34141357501721,-15.286410180772538,-10.82638094950153
1.8944999999999994,1.7668,-8.330167097316773,-1.296787072715298,-9.798680770587243,-9.54253263213218,-4.587743732330738,-1.3093879955370413,-5.507719532348801,-6.629819870704423
1.8984999999999994,1.7708,-4.88054898750679,1.250249251796802,-2.3593766889765817,-1.9654716407385648,-5.07507054096028,-4.622463477487773,-1.5962000804481762,-2.591593554952969
1.9024999999999994,1.7748,6.0524912415386325,1.2329240170324125,0.8419557840491061,6.867703796582957,0.9713267756322415,0.47640847644938766,1.299308799673704,3.2180023319687896
1.9064999999999994,1.7788,5.276174739083112,3.2800605615927916,12.638906830673985,10.709684668956983,4.094922262670644,6.486326568369473,9.178908332589208,7.467193573276333
1.9104999999999994,1.7828,5.194373726114708,5.915236685515908,14.322206237270727,12.40208325378796,7.299504743135852,4.291591691244171,13.278548036523825,15.584966939558466
1.9144999999999994,1.7868,9.028675645939332,14.611729616538472,19.997537488373855,16.895933368175275,8.433335194808903,6.485771502050677,18.380085234531307,18.85912767762988
1.9184999999999994,1.7908,12.859139596764575,11.337066023200244,24.17100714252073,24.16388029696531,14.974275954092288,14.848119255607411,19.527998623574053,21.43020773179935
1.9224999999999994,1.7948,11.44123902483619,16.276888674935094,19.81342996885477,18.385284903451428,11.482295152985284,12.486775710953356,20.15226185669514,23.15212211543421
1.9264999999999994,1.7988,13.128879412944105,11.251817516989428,19.718457597931142,17.095538687072374,8.102510195990568,12.794919648940857,20.563279156992863,22.877798672713315
1.9304999999999994,1.8028,14.527275404563733,17.528651419891247,18.324101707981278,13.791602929187325,9.899633579369755,8.489629120670447,19.946603547276762,22.31649235727844
1.9326999988555906,1.8050,12.598828988656411,14.51887911983448,16.360262529987445,11.781172988355006,11.30865234207781,8.257138352683468,22.413904565514894,21.300342112309014
1.9366999988555906,1.8090,13.370474940589853,12.573010713952435,8.231245907728518,12.248617428222936,6.865244886737842,11.656706517956517,17.035255074626306,15.748446296934013
1.9406999988555906,1.8130,11.834951598647853,6.338300184622814,6.045875531070265,10.246224480147685,7.09903042878915,4.963411919776261,10.36734651486322,11.019474344125506
1.9446999988555906,1.8170,1.1314616800231363,4.892083866568936,0.7532692401895233,1.2846204076851504,1.7179920151330572,7.779563964512456,8.611495032379198,6.397831470851861
1.9486999988555906,1.8210,3.1109750596261523,0.21041288407124936,3.6600638234569534,3.5504506642270197,2.999992353675589,4.515580771828456,3.0572801968307584,-0.7414528013981123
1.9526999988555906,1.8250,-2.9544291165719763,-2.8501375245007265,1.2591334991680978,-4.588908211823927,1.3925783235893858,-1.7591140827941807,-1.8622451421072042,-3.063414436910244
1.9566999988555906,1.8290,-9.859735631273008,-6.036936537163456,-5.182674699988565,-4.307483174553053,-4.612715368665383,-2.046399890877934,-10.132141434996994,-8.039103070847132
1.9606999988555907,1.8330,-11.358719494989664,-11.718861190812756,-10.6637891734924,-9.58765485976263,-5.4290106590815315,-10.786973643998435,-15.774894479992462,-13.366280235377587
1.9646999988555907,1.8370,-10.565000624997978,-9.045324777868704,-14.576701336470983,-14.230716015265841,-7.523967407810591,-8.536524087163134,-16.047422407964454,-17.350835108371406
1.9686999988555907,1.8410,-10.6019538901647,-15.108639055660102,-11.876517795203394,-17.844447536941516,-14.309822791208585,-9.68284632238827,-21.815663077522615,-21.52481177220714
1.9726999988555907,1.8450,-17.599757057761494,-14.06749255963516,-14.596567831399735,-14.978023194123049,-13.26389050841924,-14.885084475818484,-22.495903855333555,-21.799966856434633
1.9766999988555907,1.8490,-15.641121093097606,-17.132052473585,-22.572797571347845,-22.142806921872836,-15.86123363044825,-8.414676000158948,-22.24144871398369,-23.13487287934645
1.9806999988555907,1.8530,-15.639336991590914,-10.651491950040167,-20.671142095813742,-23.397772380463998,-13.362187150309367,-15.142730262923212,-21.73271191080501,-19.198824116659537
1.9846999988555907,1.8570,-13.14946872426471,-11.918823659126584,-21.519492456151475,-19.8538427337554,-8.137279429819191,-8.169661898127508,-20.47590143077606,-16.4967456514336
1.9886999988555907,1.8610,-10.955581870309771,-7.2291095260935805,-13.274505833826979,-18.48716439231413,-8.057233082270344,-8.165256823562395,-16.897954243462127,-12.461843536923773
1.9926999988555907,1.8650,-8.94616726337883,-5.8867826164886345,-9.171973902447029,-14.430991647369524,-3.694137720622921,-7.784128188233368,-12.209678206637875,-11.041529162806338
1.9966999988555907,1.8690,-4.006416113392877,-1.0647569642390442,-4.195692702029642,-7.032001044983647,-0.047051180152843486,1.1692611868401368,-4.912855849569106,-3.5753063477638096
2.0006999988555907,1.8730,0.24149301428216507,-1.113354104024614,-1.7299686947658273,3.9744325685135777,-1.664323936155652,3.1506455666517486,-0.3239094797806483,2.1267051330994624
2.0046999988555907,1.8770,2.935368842488372,6.9019965049403185,10.43813741715047,5.278064374617415,2.900044440367426,2.1709596238258855,8.061518186055263,9.080654498727453
2.0086999988555907,1.8810,10.567960495827592,4.37221189359942,12.522714022383049,17.175453034379515,7.9683095117981795,3.6664161916561246,11.443401028344121,10.042473140674707
2.0126999988555907,1.8850,12.292048883641726,10.696386261968044,20.206379216393948,19.967140958067503,8.705661545964938,6.467092193852801,13.817307320792633,15.483531754606023
2.0166999988555907,1.8890,15.518096338517864,16.1943427580572,17.269533990456704,21.365769380947164,11.296398838789907,10.58093729764959,18.09454210171264,20.618911423352134
2.0206999988555907,1.8930,11.851867268394003,18.114385948226598,23.74672250562344,20.994766423889804,14.789091744267356,11.149329984649562,23.60465546780741,23.0287646335071
2.0246999988555907,1.8970,17.10672546250974,12.19728153883452,19.287318374447523,17.444362198990675,13.6952475070029,10.752358434693521,24.613309089876836,24.934818736544447
2.0286999988555907,1.9010,11.399078330295062,16.05356974281875,14.369470564506983,14.416202129918496,12.673127218849897,13.085264643558705,22.74684318218566,19.271662339913792
2.03589999961853,1.9082,7.785562586513228,10.786749856141478,10.372393422768166,14.666075676031408,12.400504708109077,5.392717751298494,17.714398941894693,19.79112666454868
2.03989999961853,1.9122,10.71189433702785,6.649407328686401,11.0587920423654,8.351529644252638,7.250565480850805,8.137181946292724,13.662118859764565,11.49476896107457
2.04389999961853,1.9162,8.059257824176417,1.6681827251710377,7.791633552785195,5.224576429618641,4.7766984722141554,7.419526860659554,9.789802606849918,9.061614644819393
2.04789999961853,1.9202,-1.945712371194706,-0.9398263898470662,-2.3406406545737264,2.8646053181897955,-0.02121932997946452,0.6064611081039608,1.294915410869976,1.9077641253633821
2.05189999961853,1.9242,-4.774835353293,-1.0016847922824375,-2.78798762717151,-3.1525910744798997,-0.9189098841083281,1.1262557690820403,-4.459369644734838,-4.449691241956692
2.05589999961853,1.9282,-7.63676467520132,-2.6132384667426356,-5.869005891486621,-6.134590487506502,-7.547200074027135,-2.6413439449959384,-7.358658205209118,-6.298252295929658
2.05989999961853,1.9322,-7.644724979685211,-6.657404920088062,-9.42583903309272,-4.276219244477245,-8.16644514721016,-4.410879186485799,-11.135999521997872,-14.49349541552189
2.06389999961853,1.9362,-12.154213742460323,-11.820105810169656,-10.992927177858917,-7.523959831251786,-11.345865327512069,-5.2678785372342585,-14.54810339789693,-15.499476415006503
2.06789999961853,1.9402,-9.965927851823405,-13.684610672497268,-17.060755797256537,-15.22608010658027,-9.99789039740787,-13.12211298200593,-20.299825320027498,-17.855468595806236
2.07189999961853,1.9442,-11.101558696945327,-18.06161005454867,-16.277593063877593,-14.823733434538894,-7.978045182852382,-14.259756771736964,-22.983274140325403,-19.37590135335018
2.07589999961853,1.9482,-15.589675386958241,-15.279396270765888,-18.932313234310737,-19.474588662433273,-10.72501988465141,-10.205336381445804,-22.65831030456615,-20.760387190389444
2.07989999961853,1.9522,-16.649341212212512,-18.091049518191703,-22.408915421355942,-20.77565581486324,-7.715812629454058,-12.953498040860369,-18.65497354201587,-21.10756109608543
2.08389999961853,1.9562,-12.48975015211377,-9.1543718574848,-20.96340620703239,-23.32294710338585,-8.808962114996742,-9.536933635851106,-21.124481775815866,-16.30742728563603
2.08789999961853,1.9602,-6.603213368283487,-11.527078874626593,-14.52135680297258,-17.150871636826047,-9.929556492426613,-5.004432664993214,-14.850132758105085,-17.83698752340765
2.09189999961853,1.9642,-10.207574316040727,-10.047023044214656,-12.764378197362507,-13.204228984258101,-7.9008111971652895,-8.262591838801857,-11.491373034984564,-12.082934459649413
2.09589999961853,1.9682,-4.679773155629519,-0.9562757438873333,-3.560383245742945,-7.638831581129242,-0.24535871475096682,-2.8115925563182187,-3.1265393564342765,-7.838961254524035
2.09989999961853,1.9722,-0.48433797609261586,0.8776798855223109,1.2662339765373731,2.043002751990501,-3.504953549043496,-0.32350753573444674,-2.8258838351134012,-1.5646399538418656
2.10389999961853,1.9762,3.287162635108777,6.961612743498149,4.323456725697989,8.135882641698673,6.485086607302593,6.479309536789703,3.7441989637224253,4.051964610445092
2.10789999961853,1.9802,7.304898135131476,5.671799713298909,14.552375751391828,11.206523442751836,4.21076021104355,2.175546340672284,11.67864837014763,13.24846850265101
2.11189999961853,1.9842,12.614387780861936,12.936810381158388,14.390205229497706,17.598785958628568,6.835505834922071,11.180144893274816,16.74447324672305,13.008355953046513
2.11589999961853,1.9882,15.856145020071853,9.909869523331645,24.005923686278987,22.768486998369557,10.903026046567259,13.370486640499465,18.297933207976172,19.262402016245993
2.11989999961853,1.9922,14.722686457843043,12.71276444776137,18.240269126972194,21.03611292668727,10.936052781036594,7.895302230296622,21.059481086933225,22.693550453573735
2.12389999961853,1.9962,17.23407919443149,16.484668069553262,16.173392386486068,21.229247107509472,14.812944422333858,15.380199558005803,20.991684076275227,20.21615237704598
2.12789999961853,2.0002,16.843648313577322,18.0858412190723,17.228885146802053,15.054409306792582,9.736956583084368,11.224755955931798,23.997269782463192,21.931514513999186
2.13189999961853,2.0042,12.618609072413012,15.445188262413145,14.794835100163452,11.331540309802719,9.288922028830932,7.954311828793089,21.141758556139806,17.97740551348585
2.13689999961853,2.0092,11.14670531033272,14.42500619727029,7.944649559116414,13.518828941903715,11.963025984515678,6.949172798460444,17.099972917074194,16.366027474280173
2.14089999961853,2.0132,4.500191521310492,10.381495540592912,10.20030758962928,8.6840390045468,7.308849912400013,5.152639615380683,14.884148238488411,13.657981698072842
2.14489999961853,2.0172,5.594065790407214,5.59690076422622,7.384392287662447,1.873633449101489,2.2656973628828334,0.8144960581414535,7.886179705766281,6.790234952097448
2.14889999961853,2.0212,0.6277471583652781,-0.6467674371833945,4.0828400103225375,-1.6966611579348059,0.7159431920307014,2.718265089543364,3.780951735633641,-1.0009189598813062
2.15289999961853,2.0252,-6.522329235409657,1.0180113404348639,1.7899254309453654,0.7569120414825186,1.7703912595989166,-2.845297666733839,-2.219213779207463,-4.703638231665968
2.15689999961853,2.0292,-10.069340243272562,-4.218559100120081,-8.744731722142447,-6.715776360911078,-8.086717103467224,-8.08672439614826,-12.175520023002603,-9.2533197904937
2.16089999961853,2.0332,-10.279181360724191,-7.463629643715907,-7.002916564020305,-9.74979511240771,-3.9833826251317745,-4.841497108580165,-11.840788621566062,-15.37356461634527
2.16489999961853,2.0372,-10.645273207567367,-12.881036578465423,-13.43675610462963,-10.14596389344303,-11.556769200656897,-6.010515743619171,-18.475950698279892,-15.563706538444578
2.16889999961853,2.0412,-12.654642978498742,-14.10776555333781,-11.848997520904515,-17.75030199326306,-8.261792848719924,-14.290691398007468,-21.233387205353843,-23.634315183178042
2.17289999961853,2.0452,-15.111147475115326,-16.62506745808078,-21.672222727459314,-16.917350324106994,-13.403598999972395,-13.486595793091766,-24.204858582173074,-20.50495116385444
2.17689999961853,2.0492,-12.804491586938562,-18.869322952854098,-18.643534118936984,-19.927262076589642,-8.4887724183795,-8.859589976167591,-22.21084527896657,-21.95369169128599
2.18089999961853,2.0532,-14.558681461861918,-15.97723696235142,-19.465667540389408,-24.29484876765808,-7.547299205832096,-7.884974779426978,-23.466555351590518,-21.066879101039607
2.18489999961853,2.0572,-10.598353248308424,-10.370910773113273,-18.86256917903912,-16.72418575292417,-10.548098373849783,-13.6736093712272,-20.61593660568616,-19.064187571830495
2.18889999961853,2.0612,-12.281811133799254,-6.34138246354082,-13.170767646962524,-16.633015888851315,-3.7683615389996543,-7.31994263203732,-16.259932056645205,-12.70774209076859
2.19289999961853,2.0652,-10.236924926635563,-7.771836597161523,-9.877766203510031,-11.465982295091697,-6.098554122014758,-6.3611290824842905,-11.414377135122201,-10.238992554825261
2.19689999961853,2.0692,-6.722943830154101,-3.1495360914768056,-3.922016328617266,-5.229754413213585,-1.0212931303652848,-2.8423803606722755,-4.249336575551637,-3.4530291796797954
2.20089999961853,2.0732,-2.3276309219417772,0.1602853709247789,-2.014191727960504,3.7277359393363776,3.2504759015809963,-1.7711715559750647,-0.42721166424181245,3.0787461100561755
2.20489999961853,2.0772,3.7781606186387906,6.620890514984522,8.887455251416394,8.656700573742617,6.881325257647788,4.359065300375192,6.178343135210245,4.485696147485799
2.20889999961853,2.0812,4.323412265859629,6.139750830842045,13.564482516434811,17.245179552441112,6.542191411752301,4.316505404411918,9.765581032174362,11.51886113548808
2.21289999961853,2.0852,9.90889490938197,10.113198631241394,16.8320632999582,17.05594975979783,11.62776718371042,7.19191248744956,17.44656098263547,19.02645995862563
2.21689999961853,2.0892,11.310592919059758,15.529567869158509,19.156657912220357,17.584373462865873,10.956087879870564,12.526936178306896,21.721764078419664,19.407837011662213
2.22089999961853,2.0932,14.34552088616708,14.130379856125183,22.816874970386074,19.34534789799136,10.65959372948782,13.348328403484544,22.658152493395317,19.920199159919335
2.22489999961853,2.0972,12.148659700614196,15.036582631813669,22.73373989270242,19.327800077116542,8.250315274520421,14.139573228668347,23.98508126765085,22.574690110044923
2.22889999961853,2.1012,15.860753834067285,15.955016322189348,18.967140780479554,16.580920538844833,14.305867851796725,14.019997311183182,19.21834552486213,20.898960824847542
2.23289999961853,2.1052,12.972813554001966,10.55875835346801,17.008366664430913,13.965333314245775,8.9540089620088,12.40234634545638,19.46208569194194,20.548717212897536
2.2329999999999997,2.1053,9.326796432729097,11.347860477821595,10.99333178213934,15.376502520385872,12.56043008824225,8.828088230926207,21.583200272559814,17.79972905389722
2.2369999999999997,2.1093,12.493457291376728,13.363734442816174,8.212798717953575,9.149742410880801,10.208678190767017,7.861361407444124,16.800863308984827,13.642357823909379
2.2409999999999997,2.1133,7.664599848868955,8.022811006537864,5.6924367887100535,8.976689719785538,8.42327622447143,8.193556883546716,9.76765602162418,12.356007693900214
2.2449999999999997,2.1173,4.786173619658427,1.3466922523324225,5.880101414336769,0.23193569518256396,2.3143027490445367,2.458061716151144,9.236493375299542,6.61420189650481
2.2489999999999997,2.1213,1.0916311130627139,-0.6268149602905272,4.334284076669966,-0.8530543224788179,2.4099078035909876,-0.9641173817757305,-0.06139518470349015,3.7150293161883488
2.2529999999999997,2.1253,-0.636604058814767,-4.248690966283792,-5.775539946493144,-5.571109008837441,0.40357465998251874,-4.915281201421212,-6.810071467978098,-5.925605537963174
2.2569999999999997,2.1293,-8.685607695079142,-7.449838668819884,-1.6107720019217808,-5.118039121897037,-6.89360592843003,-6.589633569250926,-8.679461414193577,-11.815226209536648
2.2609999999999997,2.1333,-11.495536158225978,-6.437470557952042,-6.312963792210323,-11.52562901469629,-5.441118099515513,-4.776650102594936,-13.132895136293163,-16.19800496707148
2.2649999999999997,2.1373,-10.149278359897412,-13.59723149570156,-9.627357002842444,-9.054092734508064,-9.02527891709746,-12.045945257317577,-18.748796092343053,-17.10224762268658
2.2689999999999997,2.1413,-17.854526200131318,-16.462265434946694,-17.791277997619325,-17.542576020858164,-9.979862892412283,-9.977912149994916,-18.157294501870886,-19.03359991172726
2.2729999999999997,2.1453,-15.294486154717475,-15.10459790294944,-21.053675832518863,-19.68286003713607,-12.85354075576646,-11.263459379690099,-20.050826708543603,-22.158876763931552
2.2769999999999997,2.1493,-11.10297402976775,-15.29211666827301,-19.61988970270272,-20.752533066803064,-9.144132094225704,-9.305533516833506,-22.641379494185436,-22.304263861091574
2.2809999999999997,2.1533,-13.052990247527209,-15.779574983153829,-19.22832089477363,-21.495060974641778,-12.602902768272223,-8.584712506296334,-19.072960440953054,-22.538815119630623
2.2849999999999997,2.1573,-15.958690676632951,-8.433188783754304,-15.742288333530169,-17.96027554143948,-11.018888018299068,-9.127963901645925,-20.38588626701839,-16.389233033344652
2.2889999999999997,2.1613,-7.716464057756504,-8.042647034676595,-16.302317276724985,-12.780409990079312,-6.936335374036439,-5.96705892418576,-14.967418430172122,-13.715415180859333
2.2929999999999997,2.1653,-4.572391518468574,-6.785997559383924,-11.096997392406283,-8.823113894679826,-1.797269458135828,-3.5382643825384186,-9.854342585959968,-10.019557778544716
2.2969999999999997,2.1693,-1.1534934153729504,-0.5901986147786529,-6.268767658579819,-3.512847601826633,-0.8802986419163656,-1.0301508877894583,-3.974447562763174,-1.857597501551715
2.3009999999999997,2.1733,-0.8313493640215363,1.9905849743916701,4.289462846466938,0.3026180422926361,-1.0500033540244704,-2.25494862758804,4.201592420596662,1.2327191485184752
2.3049999999999997,2.1773,6.940996129879456,3.2203989643005695,11.83563349107368,8.983025785834815,4.793493454617324,7.1029353596778035,8.82615605626108,8.646316873052259
2.3089999999999997,2.1813,9.773818225005472,11.819558152033228,15.881459286226082,10.508787860359908,8.484378642073004,8.151558079099292,12.631886827643468,10.147232405514792
2.3129999999999997,2.1853,7.941819229502583,10.894503786284393,17.838043957710234,15.2926625962071,4.827821741464149,8.867604377447979,16.709784451974414,18.24961758555459
2.3169999999999997,2.1893,12.145419407879546,11.870336653009623,24.13616065943643,20.288677755742913,9.147228955705977,10.074474100744792,20.188402476369458,18.620550452132367
2.3209999999999997,2.1933,15.528549523543612,16.97032260664227,21.454656298823956,23.76633012920077,11.990357441223809,15.144109338092498,23.365842461782076,23.909063742407348
2.3249999999999997,2.1973,16.658523117501595,13.624775947597618,17.69510419888114,17.760173060338932,15.111076479431258,11.632228457373206,23.53406096535549,24.01573035073953
2.3289999999999997,2.2013,12.189791169831189,16.556664555927206,14.225829930704872,18.01969214576158,8.091197365555878,11.084004303738077,19.337420962903423,21.996812564274393
2.34069999885559,2.2130,11.484463290759077,11.694370605814633,7.68006491822947,5.305472447258936,5.797534535565144,4.710371715888528,15.160874660126204,11.076753662548443
2.34469999885559,2.2170,3.8410687053227637,6.211772925552896,4.265296604603257,5.18346601173574,4.686794240056117,7.196112799971327,4.98825429754313,5.609034788739821
2.34869999885559,2.2210,4.073888422128915,3.7281339962296722,1.489159203234352,-2.3509908373095083,2.94543421579987,4.659711099196394,1.766222582155043,1.0028851998443766
2.35269999885559,2.2250,-0.819414854586852,-6.4523628179610215,-0.6609805825328108,-4.0106757010501575,-1.502822377874649,0.2604755322644037,-5.406905306260606,-6.299040044131285
2.35669999885559,2.2290,-4.0815014583984075,-9.176054758230844,-4.714991666304556,-8.15257706592086,-8.336075066609219,-6.183512616599201,-8.945576818873741,-8.194119128853497
2.36069999885559,2.2330,-10.353717647575904,-10.524338918296873,-4.757405601972399,-11.789759480256272,-10.279418856245357,-10.146774837778544,-14.78881632889281,-13.932454162390693
2.36469999885559,2.2370,-14.671507376430679,-15.524187400209104,-13.989051440931124,-8.48293289904117,-6.588187899512567,-9.358467380515513,-17.288780513331528,-18.219801324356357
2.36869999885559,2.2410,-12.26657181566577,-10.81544696355899,-16.651432233640392,-11.574026957536558,-13.106626788326889,-11.773338061340535,-21.221544013381145,-18.31435028923851
2.37269999885559,2.2450,-16.861802117061004,-13.740279134307144,-15.826128698940257,-17.47163459139154,-8.188507073556679,-7.886294928850446,-19.776242072182207,-22.54661061748144
2.37669999885559,2.2490,-14.168730842274174,-16.09404121358855,-16.362148198433605,-19.566116663740218,-12.006316150969834,-13.607234274196628,-23.5182719344619,-23.22495648023004
2.38069999885559,2.2530,-13.988701360747879,-15.517963761254668,-17.288913360705354,-19.311623367190286,-12.7450062662895,-12.263237353941728,-20.31141188052336,-23.815128413459213
2.38469999885559,2.2570,-10.742276394633112,-9.08429682489139,-19.483899196260484,-22.894974127290574,-7.458494198633374,-11.129384765156395,-19.66901851796006,-15.932508367077576
2.38869999885559,2.2610,-9.719642904992567,-12.800544263044358,-14.386312930408113,-18.769662589547913,-4.836233410711652,-10.585705833402626,-14.82284589936095,-15.631044591168806
2.39269999885559,2.2650,-9.882529637067654,-6.677469198598915,-8.065483144620512,-11.253659193629499,-4.488341111467109,-7.186700815921829,-10.943033129616623,-10.041040162112063
2.39669999885559,2.2690,-6.892394099128847,-1.2993771863024621,-6.556110257930842,-6.1654744569733335,-4.3999269890609245,-1.3930047779042378,-7.405785016466556,-3.06299347777422
2.40069999885559,2.2730,-3.137578048097125,3.5199445283983657,-1.9835429501209156,4.099409462654494,-2.328736196930005,-2.4780748142153044,3.3724677788779096,0.09297353001542819
2.40469999885559,2.2770,4.065255033796113,7.896871062024153,8.877572352954036,5.913698958661922,0.8896455764237206,-0.2766513952110903,6.502347721491512,4.230204797091454
2.40869999885559,2.2810,7.902302323623199,9.787194009322647,14.135850005189964,14.295652338326503,6.690850782885645,4.197741061956055,10.346585270179233,12.194676876553936
2.41269999885559,2.2850,11.654721302269692,11.84601177473792,19.06161683008141,14.682726455663502,9.305753126560226,11.985503010574288,13.821990344726053,16.405059930982905
2.41669999885559,2.2890,16.939292201548525,11.222041532141303,18.934801063087754,19.23583188460407,7.802746499736549,12.094622408849352,20.20594284251105,20.953747454590392
2.42069999885559,2.2930,17.71689955530146,10.571611831615854,17.03986096280127,17.664151960610354,9.269433303706174,9.319488253993807,22.483930528850845,22.491681783171657
2.42469999885559,2.2970,15.520554032721538,13.036472942284913,20.057029157713593,20.53387250590866,9.50520047728474,10.325748538426343,23.444584686112993,24.973514143942207
2.42869999885559,2.3010,12.861211287722188,10.597259048504512,18.42109334937487,19.545376952473575,9.002034360308762,15.370907537680818,23.656373615649763,21.214215495821556
2.43269999885559,2.3050,16.552026736702725,11.838447599808227,11.543676511739289,15.676262963439095,13.458019180976216,9.08200767355674,17.18633196907011,19.9073456503745
2.43669999885559,2.3090,7.200060029597955,13.584762433580924,13.185595679330063,9.138918955406265,7.322825619306053,9.543886617525999,16.250325704685174,16.571914950840597
2.4265999984741207,2.2989,14.650352879253772,17.110710318987785,18.319889216419668,17.867222360546787,11.044729840405891,12.898591174120138,20.12508540160809,22.640939296551327
2.4305999984741207,2.3029,12.748032209674577,16.357901694002006,17.158899228424083,17.08258776155626,13.83772774160494,7.606357141538638,21.04550895356524,22.805769693737638
2.4345999984741207,2.3069,12.757836472731842,10.108985997077266,8.973286336072231,11.475077767428848,9.386194949336746,9.140703036502835,16.331909026816035,18.5999006055455
2.4385999984741207,2.3109,8.841002957411874,9.486925940111664,10.681833129234281,5.307616521243625,9.357005709495027,8.16756964438082,16.117790407192505,16.966225526607094
2.4425999984741207,2.3149,8.70040257165523,3.0456961988963647,6.17809533395173,3.205693478424148,4.650522030698592,4.843294052304532,8.670095354550643,10.326405241806977
2.4465999984741207,2.3189,7.080275453026357,0.5367437397913868,0.5017843096278849,5.73960974250838,1.2345731373356728,3.6467061917822203,4.762375318546047,3.3564551213540046
2.4505999984741207,2.3229,-0.22198545968467975,2.2468598946070566,1.4501841968142226,-0.23390106238944103,-2.6403310388252565,-0.10861277615133358,1.1090382368637286,-2.341566508504912
2.4545999984741207,2.3269,-1.9101760101358352,-4.667039604165349,-3.285384828093611,-1.0010729743060125,-1.9515837832540721,-5.159963936682521,-4.4282019361955385,-4.3458721008206975
2.4585999984741207,2.3309,-10.397415106345457,-10.41718624117868,-2.5556989470901836,-7.3939848753567965,-7.0539190442975315,-3.0348408643833764,-10.732201596922986,-9.820040640891339
2.4625999984741207,2.3349,-6.969314552869961,-8.201888668771536,-10.870702109797833,-10.055419976128562,-7.414936741176995,-6.445386969513432,-16.586770930312767,-15.943133107637205
2.4665999984741207,2.3389,-13.183222922977528,-16.788121064405892,-17.01339636301217,-16.3957394654,-14.358342044503239,-7.430483776272515,-16.766196598950888,-17.181191483195782
2.4705999984741207,2.3429,-10.691934942410755,-16.7492223829225,-15.733000780577434,-18.554567851263176,-12.10086217062919,-11.796835721153327,-21.37987226256227,-20.414366964256047
2.4745999984741207,2.3469,-17.33646135538227,-12.302599932457603,-22.84772689660342,-16.268732342102076,-12.747952998044415,-10.438234482589122,-24.17104406265465,-22.342341491027906
2.4785999984741207,2.3509,-16.579097592648314,-15.219979784481573,-22.500049656219808,-20.293574764376142,-12.396785885012381,-13.26449094781674,-19.71354360557124,-19.71264382400776
2.4825999984741207,2.3549,-11.197877358655361,-11.475506050426148,-18.61595153752933,-23.607729630261417,-8.522784526941198,-11.68010679275258,-18.08253743157246,-22.035435430112845
2.4865999984741207,2.3589,-14.77960512932872,-11.153256599137901,-15.059013551134328,-22.0563770645434,-8.812216906232845,-9.827993586401146,-15.753625923679763,-17.327571882218624
2.4905999984741207,2.3629,-10.283806182888911,-9.031795327545428,-17.2679011894881,-16.15803353421094,-6.725272146006819,-6.464199303573649,-14.223438438279315,-13.64261747870318
2.4945999984741207,2.3669,-5.132888824187728,-3.3868226013769185,-9.80653344962833,-10.40082275592525,-7.267255671577348,-3.7801075410732183,-9.547859362564623,-9.30006465149154
2.4985999984741207,2.3709,-1.5907729544957372,-4.532870007206344,-1.5654159192643453,-5.245832466836676,1.7252539261136723,0.8907888900609047,0.5883379238471385,-3.1051342169437417
2.5025999984741207,2.3749,1.5745944964844676,1.7077612804059101,1.54320799061305,3.813626834064613,5.116411975443708,2.3656951437457847,5.118126136382353,3.170316704604119
2.5065999984741207,2.3789,3.553364312496716,6.43378786995266,11.782874224852229,12.063815468180508,6.23939153527722,6.375128719003886,8.65548673600607,9.51678525213073
2.5105999984741207,2.3829,8.805790912552466,11.113507040262007,12.0497772304639,18.065954626041083,10.870615318691263,9.386868081695269,12.057198708778152,15.41694670875236
2.5145999984741207,2.3869,8.234404873113444,13.750257324166338,19.769230289959957,18.74739935685229,7.635031387116693,9.160436758613802,15.10208785318666,19.855889045241177
2.5185999984741207,2.3909,15.37027960472299,16.590347866025084,24.42148127882288,19.80718830062145,11.908023169929866,12.376718391774457,22.033199514011326,18.23795369329804
2.5225999984741208,2.3949,11.463346911174266,17.66410978811389,18.119520801084292,23.42738369674768,8.331934267490027,12.500738847099978,24.3264923014371,22.219604892456054
2.526599998474121,2.3989,13.45789131076323,16.029559543038577,20.63720364980314,16.413619380996433,8.047983022933517,11.700844523896738,24.119575414460797,24.7529649066923
2.530599998474121,2.4029,16.554900285733346,16.625900518203593,17.313429296932057,18.99198241113397,11.852003380696686,11.644996480944577,22.893527427204234,19.032302752173983
2.534599998474121,2.4069,14.44421294306648,10.248523469155423,8.725116557369514,12.600427626688093,9.374479664184118,10.981985860609594,19.540447019008198,19.334896930883975
2.538599998474121,2.4109,12.04916769551026,11.525783302191158,9.868821744358485,9.210137668476253,9.201572499268506,11.323000780218477,15.646284905668903,17.174232003407905
2.542599998474121,2.4149,8.74586988230111,9.85975770919285,6.41060179385548,8.798591577636495,3.0763263015661844,8.50046509781205,7.8564107112251556,9.529287576969784
2.546599998474121,2.4189,6.4301003357992865,1.482217884599664,2.6734921202965007,-0.37560438689438236,0.35305827681506363,4.268636756055335,2.1515880845641897,4.085117781191255
2.550599998474121,2.4229,-3.236041066206458,2.737630494232669,1.069572646975781,-2.5364832338913432,-3.815115769888474,2.421224874445383,-1.8753901269127498,-2.337421015542844
2.5545999984741212,2.4269,-2.465544793916015,-6.184035134465649,-1.926635664865998,-6.5281433957334425,-3.313823575078879,-0.466110485309426,-4.566573970456502,-8.745966812637501
2.5585999984741212,2.4309,-9.486360910536073,-4.442818878017993,-8.042440754019218,-9.486002825815866,-5.192266694940778,-6.465594233125722,-9.058734384010048,-9.004935201221326
2.5625999984741212,2.4349,-11.253288238388532,-12.538334769754986,-10.798879691897607,-9.170375848266673,-12.51893069867546,-7.622029543419606,-15.030401812528556,-18.771934611715906
2.5665999984741212,2.4389,-15.849877981811197,-12.758211268033623,-14.253910526947509,-14.451183366005948,-9.918567984639612,-6.503768579589932,-21.99625971687168,-21.149244536492358
2.5705999984741212,2.4429,-12.840291229522412,-18.41999368392982,-20.563146510873054,-14.642678233421073,-7.835526892707994,-9.2249014128801,-21.178358078117306,-20.069383168703617
2.5745999984741212,2.4469,-14.349174604702169,-14.461673809756444,-21.0352743551069,-22.55715123939095,-10.125704188379228,-8.456329461615244,-19.95733595321197,-24.7002047484802
2.5785999984741212,2.4509,-10.775179500228194,-11.752491609569903,-17.03550568610039,-22.814374172551638,-11.55484456322959,-15.355519216953146,-19.215745896866114,-20.93845238935045
2.5825999984741213,2.4549,-10.456143482497337,-11.603605038235763,-22.266399115090465,-22.888557846047718,-14.284711841100112,-12.357258532609597,-18.011309947660664,-21.64212640050888
2.5865999984741213,2.4589,-8.105467825902394,-10.024000213390469,-18.751841030414873,-21.09419194378904,-12.13369322998166,-6.77436393101707,-18.922592855759472,-13.993364084113903
2.5905999984741213,2.4629,-10.876252478494209,-6.082944778844757,-13.509292467180547,-13.345696566486222,-3.135942249534817,-6.43110327115061,-11.542037296700355,-14.388855243738854
2.5945999984741213,2.4669,-2.208488878647737,-1.1499112734013872,-10.249702611250953,-10.3206651225795,-5.374884520046871,-4.490167204570957,-8.374168257146238,-6.880007665420732
2.5985999984741213,2.4709,-2.0829835613891574,-3.35022667768467,-5.946136273642908,-1.5362721382831745,0.273107297606078,-4.119871106837982,-3.166511588534177,-4.422415883172693
2.6025999984741213,2.4749,2.792193918007321,4.5676899314677,5.464932837618767,8.019123718917884,-0.6809992387426194,3.8661388358369786,3.1714058600648496,1.7578329425286063
2.6065999984741213,2.4789,9.96705355454873,4.8500539973799786,11.712748073490529,8.541580087494694,3.1942454440520844,2.144298225467015,11.190221514743723,7.319000786181239
2.6105999984741213,2.4829,11.578187373954236,7.310149884523683,17.98210653210705,19.383327374035694,10.39347989801966,5.418846644783564,13.812953130528816,16.05774528007571
2.6145999984741213,2.4869,12.128754581061145,15.193629349805283,17.074438678935515,20.55716481417395,6.236906640913953,10.471144289176266,18.265821785967358,20.324097843671858
2.6185999984741213,2.4909,15.780962322562841,13.641728690527227,18.980555945682717,18.723936941222664,9.613875415549721,13.723513305008083,18.570766229879254,23.392127552192004
2.6225999984741213,2.4949,10.974775078044459,13.47103450728754,23.695151892072467,23.234175708268225,15.099072109860229,9.63605255015747,23.458323878895932,20.71606275041439
2.6350999984741206,2.5074,10.814324902808023,9.873287039448822,15.663606918700072,12.800383944824395,9.704726719650033,12.721049357035309,19.94689099837252,20.335295246625993
2.6390999984741206,2.5114,6.7038005404893,6.080753922650777,10.479854363251,8.75843496518666,5.503679896117705,4.592884780552142,14.798122566402776,13.328863604506527
2.6430999984741206,2.5154,5.506834196728563,9.697535484436006,8.210934177440624,5.987689418971648,2.1238713803884437,6.831867809514124,9.103981675045432,11.924916743457597
2.6470999984741206,2.5194,3.3104196190787305,4.347403285381402,1.535910284909101,4.026423280391603,1.1636351978389659,1.1222894487427437,3.7150321524394063,4.927336628216826
2.6510999984741206,2.5234,-4.4414763770093035,2.6682867262489203,-0.01876435458094272,-1.2526875193228237,2.0515395795331686,2.857515312983242,-2.7531213468587925,-2.533876664979596
2.6550999984741206,2.5274,-5.143028832936508,-2.359792982029613,-6.660590682738507,-5.9380716781735154,-1.8520330461505425,-7.135513374949048,-8.774363018561274,-6.8025789955529445
2.6590999984741206,2.5314,-6.277120142445921,-6.8096439814711305,-6.895645674473374,-3.4890103388834643,-4.609975799462068,-6.147351928202155,-11.694056452373355,-12.615548882613018
2.6630999984741206,2.5354,-8.261705862575038,-11.84231688033972,-10.745633124645995,-13.435896646380286,-8.680304254352508,-5.3395911692954305,-14.64107365835108,-17.287962430800505
2.6670999984741206,2.5394,-10.079858571654581,-15.515256195945476,-17.65479348312808,-16.373846738992665,-11.824110721774979,-12.861771754790816,-20.596094882026186,-21.795037968993384
2.6710999984741206,2.5434,-13.091704235282755,-12.242095221843066,-13.791348313136965,-20.319566119527824,-8.194007656171927,-12.649362970445097,-23.658169786345084,-23.637989498542044
2.6750999984741206,2.5474,-15.285410713384508,-15.148475744975872,-20.55798789054665,-21.668543200106622,-10.033076988289512,-13.314641007222162,-22.548717612710316,-22.305497100786916
2.6790999984741206,2.5514,-13.970594321639275,-14.405493110666248,-23.27143498146418,-24.410442785471858,-14.206742040686485,-13.847519065148854,-22.580735815700574,-20.13978112002889
2.6830999984741206,2.5554,-14.010396200622075,-9.263456562549514,-17.003733737904895,-22.273311073601025,-11.937047490877887,-10.79748313049589,-19.60589289073979,-19.867187318740193
2.6870999984741206,2.5594,-12.21573966957499,-11.553576603605764,-16.06875608935425,-16.315299709344142,-7.957485340052583,-4.971966815285339,-18.409612314373973,-15.706515399946449
2.6910999984741206,2.5634,-9.103803208906946,-10.96427245315548,-11.040967355146998,-10.670257189574851,-9.12195980453162,-2.7501999653889646,-13.676007235062237,-11.461720718872435
2.6950999984741206,2.5674,-4.995693886186362,-3.286259489453971,-8.15590198551547,-7.745102492045837,-3.42088145516415,0.20545755097212703,-6.648765691113136,-7.296041438399117
2.6990999984741206,2.5714,2.3948304080579788,-2.103279490149919,-3.092615235055231,-4.76267458550278,-1.0631092982470673,0.866402228541943,-0.664813161911614,1.194368582247706
2.7030999984741206,2.5754,4.3707155078722035,-0.2880918526577654,4.223087200144935,6.2269829978266635,1.99111879586187,1.9298735411339942,3.345825873523374,2.3481487087808324
2.7070999984741206,2.5794,3.999249231834459,3.578818072904908,12.543284361647682,9.417261754358845,4.047450798991704,8.398557213899206,12.210462074526397,10.537403697915488
2.7110999984741206,2.5834,12.949296498849943,7.2537380488592245,18.98988268309191,17.345087077803438,8.257666206097829,8.24165927716639,12.861722204531382,12.16245163447049
2.7150999984741206,2.5874,14.583141288147868,11.202991300399843,21.097044755405477,16.497050285808154,7.110345264765607,8.316763766757852,17.24885155742822,19.316614317536015
2.7190999984741206,2.5914,10.934934532080597,13.733100952509773,24.367285520841293,17.965980743871942,12.768801537354792,8.671760320239422,23.74806974084629,20.45634420226388
2.7230999984741207,2.5954,18.75506983043821,10.902777356295745,22.563612980322716,20.621566753507512,8.281802695603941,10.409663022614868,22.409802491105413,23.235303135169588
2.7270999984741207,2.5994,11.659958672254806,11.131406431071062,20.091334340206856,15.084725783337875,13.897875832336407,15.267845388263941,20.204845919597908,22.60127698763928
2.7310999984741207,2.6034,13.115281204589596,13.768276993022482,14.607067194034142,17.005021066151823,10.63011806875586,11.299080871007575,21.24870962855399,20.061271296267083
2.7265999984741205,2.5989,13.314876346388484,14.219163811247318,21.873627111621982,21.569415473316703,12.06248061109034,10.63332114269058,21.622025881924806,20.336303705556034
2.7305999984741205,2.6029,13.257664471371896,11.289927362828024,16.677032810141455,19.256887323373327,14.251449924841879,11.753591674879566,19.135742345809998,19.99136861309203
2.7345999984741205,2.6069,12.849704589246468,16.31410505005841,9.6681910155256,12.899275963517011,6.918488984250365,9.777083816518735,19.690913798084043,19.533451447434068
2.7385999984741205,2.6109,13.411016732844331,8.368728202597515,9.604461412962172,10.330839557943282,10.024464345732074,11.52943416854751,13.204268838108188,11.973198944694413
2.7425999984741205,2.6149,7.560679380155973,6.092029047018177,2.807180533655653,6.5200659403159955,4.362074964733223,6.52832696028873,11.459326994634585,8.719810006781396
2.7465999984741205,2.6189,6.012951932877943,4.903514869445152,4.045699404503485,-1.0847025644350907,3.317938487608251,2.0922320441939903,4.926043424453704,6.2607020298583596
2.7505999984741205,2.6229,-1.8918007887385027,-2.005201373679724,0.2163014016497143,-3.7764063516681126,-3.339228488553218,1.600428949160062,-1.2038515292082435,-1.5829913860579972
2.7545999984741205,2.6269,-0.9272257760658658,-7.976884900028043,-0.5372948664778434,-2.092349123144759,-7.095401677730047,-0.8843498575310433,-6.191694398228012,-5.800724672512025
2.7585999984741205,2.6309,-6.210967841783759,-5.86054238063554,-2.865003792108568,-7.778230483240581,-8.362634870929526,-9.322860058284792,-11.541599657791487,-12.360490061399702
2.7625999984741205,2.6349,-9.88766855271078,-8.694161111957003,-8.849359247602687,-12.370799614315965,-7.381935952272382,-5.755408091207852,-17.830349904616035,-14.98275295802381
2.7665999984741205,2.6389,-12.891460494958254,-15.10370453573821,-14.956616402384139,-13.259617920401336,-12.031008356196441,-12.355673253266069,-17.445735656702027,-20.391512485098055
2.7705999984741205,2.6429,-13.160461697344124,-16.830956455109366,-15.020183380213759,-13.098503306474939,-12.40271320966322,-10.956180318462,-24.39322588401914,-19.01620456778241
2.7745999984741205,2.6469,-14.244622625866405,-14.560404082823752,-16.930046452490917,-19.89554904824424,-12.157106494062077,-11.962890040882197,-19.854370144680306,-21.376393694495878
2.7785999984741205,2.6509,-17.16661042353707,-11.639251982701358,-19.23297579549726,-24.134579467570134,-8.313850356023547,-11.496639780481688,-21.693316800419147,-22.68305466218124
2.7825999984741205,2.6549,-14.552090426305964,-12.0986471974411,-18.70928769581008,-17.675121014136415,-8.361774131892183,-12.970802116439444,-22.451481051160872,-17.667698580382464
2.7865999984741205,2.6589,-12.1899993496875,-14.575439903576603,-16.800050668468472,-19.183116244749737,-7.554261833128888,-5.640431739450784,-19.293229327229007,-14.301503677016289
2.7905999984741205,2.6629,-4.976275174639097,-9.79752049787977,-12.321210549576161,-11.219103656095179,-3.4916963607314155,-10.671139492980299,-14.061333842462068,-10.68389597237747
2.7945999984741206,2.6669,-6.128083961767821,-1.8809929720491434,-11.131598139446176,-11.30252646453814,-3.7668379567974943,-3.000342940163801,-5.836088939379543,-6.108827022952154
2.7985999984741206,2.6709,-5.034899112875839,-0.10638538492800897,-1.3229964762047066,-5.7018675145934505,-0.9561139191858348,1.3093438739152998,-3.3566124464484393,-2.9642717056479704
2.8025999984741206,2.6749,4.587909473677129,4.856314434589212,3.5201098829523003,6.151901178107412,4.569612131972061,-0.29996929123201,1.7862843534161021,3.0993790875187535
2.8065999984741206,2.6789,5.709167981012144,5.3420105217260625,11.4504920111554,7.524188588791265,5.564528436133675,5.464002073000625,8.086512686839846,6.625422158670476
2.8105999984741206,2.6829,12.344070498839425,9.127953819325246,15.592710175712252,12.64088019405159,3.5888529558046134,6.74508369254649,13.545962575968181,15.143995660828159
2.8145999984741206,2.6869,15.317667321990765,8.996464095295423,21.841641885200428,16.235369042694153,11.385593725957174,9.673572945740858,17.864211014663592,15.841438369595554
2.8185999984741206,2.6909,15.239061048029118,13.23053318164991,23.47595422176458,17.661613666262923,14.634483004146384,7.410632886754141,19.563475381694605,22.61340271398939
2.8225999984741206,2.6949,16.24102897488859,15.051627725231477,19.895954644672546,19.28502961701926,9.269721036606729,10.475513423397336,22.186646933889367,24.514938118498883
2.8266999988555908,2.6990,13.752962912172807,18.60710746923123,15.480649511702982,15.821637830246633,8.768137882346487,11.247368804886305,24.16543095556085,24.548416107315827
2.8306999988555908,2.7030,15.50205234058997,14.7566741364816,13.852017236118526,17.53206404179351,13.489583420646653,10.442015675090556,23.27924356730777,20.49266847354496
